File: inputs/edxCalibration/edx_raw/2010/junho/31508 Ag.20100626140846.csv
"Sample    : 31508 Ag",
"Operator  : thiago",
"Comment  : cubatao-g-policarbonato",
"Group     : kerr2007ag180cal_lt",
"Date       : 2010-06-26 14:04:32",
"",
"Mesurement Condition",
"------------------------------------------------------------------------------------",
"Instrument : 700HS2   Atmosphere : Vac.   Collimator : 10(mm)   Spin : No",
"------------------------------------------------------------------------------------",
"Analyte               TG kV   uA      FI Acq.(keV)  Anal.(keV)  Time(sec)     DT(%)",
"------------------------------------------------------------------------------------",
"Na                    Rh 50  393-Auto Al  0 - 20    0.8 - 1.2   Live -  179   16",
"",
"<Profile>",
"Channel_info_start",
"Channel : Na",
"Points : 2048",
"Range : 0.000000 - 20.48",
"Step : 0.010000",
"Channel_info_end",
"0",
"0",
"0",
"0",
"0",
"55",
"47",
"47",
"52",
"51",
"56",
"61",
"49",
"46",
"47",
"59",
"45",
"148",
"189",
"99",
"146",
"141",
"99",
"83",
"69",
"90",
"83",
"73",
"119",
"140",
"80",
"72",
"70",
"92",
"87",
"119",
"158",
"415",
"592",
"364",
"449",
"1070",
"6594",
"10340",
"4040",
"5360",
"3815",
"1705",
"1232",
"727",
"523",
"532",
"1017",
"1551",
"662",
"161",
"112",
"204",
"192",
"81",
"46",
"56",
"44",
"72",
"88",
"81",
"87",
"76",
"68",
"62",
"78",
"71",
"50",
"62",
"61",
"94",
"104",
"107",
"106",
"108",
"100",
"99",
"78",
"77",
"95",
"77",
"105",
"135",
"171",
"203",
"185",
"241",
"259",
"203",
"186",
"173",
"160",
"169",
"141",
"131",
"153",
"143",
"140",
"135",
"138",
"149",
"138",
"146",
"138",
"144",
"158",
"156",
"143",
"155",
"182",
"225",
"207",
"180",
"213",
"205",
"235",
"226",
"227",
"264",
"257",
"173",
"153",
"168",
"185",
"181",
"155",
"159",
"170",
"185",
"178",
"177",
"159",
"191",
"179",
"178",
"184",
"201",
"180",
"181",
"164",
"172",
"132",
"159",
"153",
"145",
"138",
"147",
"146",
"125",
"144",
"150",
"147",
"178",
"183",
"186",
"165",
"150",
"155",
"195",
"143",
"172",
"145",
"177",
"165",
"135",
"130",
"129",
"162",
"145",
"125",
"145",
"133",
"141",
"129",
"125",
"138",
"125",
"141",
"122",
"116",
"143",
"145",
"120",
"138",
"96",
"121",
"117",
"145",
"110",
"137",
"147",
"142",
"130",
"140",
"142",
"122",
"119",
"143",
"140",
"142",
"116",
"124",
"136",
"125",
"120",
"97",
"105",
"125",
"134",
"135",
"114",
"119",
"112",
"102",
"90",
"107",
"105",
"99",
"97",
"96",
"104",
"101",
"111",
"95",
"87",
"93",
"97",
"94",
"100",
"105",
"107",
"88",
"99",
"80",
"90",
"92",
"81",
"81",
"117",
"101",
"89",
"94",
"106",
"96",
"83",
"92",
"95",
"98",
"89",
"100",
"102",
"118",
"95",
"84",
"108",
"101",
"112",
"107",
"104",
"136",
"117",
"142",
"168",
"191",
"262",
"307",
"398",
"503",
"523",
"584",
"546",
"529",
"424",
"375",
"259",
"266",
"172",
"138",
"128",
"183",
"238",
"317",
"373",
"342",
"238",
"170",
"108",
"98",
"247093",
"Channel_info_start",
"Channel : Mg",
"Points : 0",
"Range : 0.000000 - 0.000000",
"Step : 0.010000",
"Channel_info_end",
"Channel_info_start",
"Channel : Al",
"Points : 0",
"Range : 0.000000 - 0.000000",
"Step : 0.010000",
"Channel_info_end",
"Channel_info_start",
"Channel : Si",
"Points : 0",
"Range : 0.000000 - 0.000000",
"Step : 0.010000",
"Channel_info_end",
"Channel_info_start",
"Channel : P ",
"Points : 0",
"Range : 0.000000 - 0.000000",
"Step : 0.010000",
"Channel_info_end",
"Channel_info_start",
"Channel : S ",
"Points : 0",
"Range : 0.000000 - 0.000000",
"Step : 0.010000",
"Channel_info_end",
"Channel_info_start",
"Channel : Cl",
"Points : 0",
"Range : 0.000000 - 0.000000",
"Step : 0.010000",
"Channel_info_end",
"Channel_info_start",
"Channel : K ",
"Points : 0",
"Range : 0.000000 - 0.000000",
"Step : 0.010000",
"Channel_info_end",
"Channel_info_start",
"Channel : Ca",
"Points : 0",
"Range : 0.000000 - 0.000000",
"Step : 0.010000",
"Channel_info_end",
"Channel_info_start",
"Channel : Ti",
"Points : 0",
"Range : 0.000000 - 0.000000",
"Step : 0.010000",
"Channel_info_end",
"Channel_info_start",
"Channel : V ",
"Points : 0",
"Range : 0.000000 - 0.000000",
"Step : 0.010000",
"Channel_info_end",
"Channel_info_start",
"Channel : Cr",
"Points : 0",
"Range : 0.000000 - 0.000000",
"Step : 0.010000",
"Channel_info_end",
"Channel_info_start",
"Channel : Mn",
"Points : 0",
"Range : 0.000000 - 0.000000",
"Step : 0.010000",
"Channel_info_end",
"Channel_info_start",
"Channel : Fe",
"Points : 0",
"Range : 0.000000 - 0.000000",
"Step : 0.010000",
"Channel_info_end",
"Channel_info_start",
"Channel : Cu",
"Points : 0",
"Range : 0.000000 - 0.000000",
"Step : 0.010000",
"Channel_info_end",
"Channel_info_start",
"Channel : Zn",
"Points : 0",
"Range : 0.000000 - 0.000000",
"Step : 0.010000",
"Channel_info_end",
"Channel_info_start",
"Channel : Sr",
"Points : 0",
"Range : 0.000000 - 0.000000",
"Step : 0.010000",
"Channel_info_end",
"Channel_info_start",
"Channel : Pb",
"Points : 0",
"Range : 0.000000 - 0.000000",
"Step : 0.010000",
"Channel_info_end",
"",
"Qualitative Result",
"--------------------------------------------------------------------------------",
"Element :  Mg, P , Cl, Cd, Ca, Zn, Rh",
"",
"Peak List",
"--------------------------------------------------------------------------------",
"Channel               Line        keV     Net Int.(cps/uA)",
"--------------------------------------------------------------------------------",
"Na                    MgKa         1.24     0.026",
"                      ----         1.40     0.013",
"                      P Ka         2.00     0.021",
"                      ClKa         2.64     0.069",
"                      ----         2.99     1.914",
"                      CdLa         3.16     0.957",
"                      CdLb1        3.38     0.141",
"                      CdLb2        3.52     0.046",
"                      CdLg1        3.70     0.048",
"                      CaKa         3.70     0.208",
"                      CaKb         4.03     0.022",
"                      ----         6.46     0.035",
"                      ZnKa         8.64     0.030",
"                      RhKaC       19.21     0.138",
"                      ----        19.47     0.057",
"                      RhKa        20.09     0.084",
"--------------------------------------------------------------------------------",
"",
"Quantitative Result",
"--------------------------------------------------------------------------------",
"Analyte               Result             Std.Dev. Proc.-Calc. Line Intensity(cps/uA)",
"--------------------------------------------------------------------------------",
"====[No. 1 Layer]====< Layer1               >===============================",
"Layer1                   8.660 ug/cm2    -------- Flux       -------- --------",
"Mg                       8.660 ug/cm2    -------- ********** -------- --------",