File: inputs/edxCalibration/edx_raw/2010/junho/Aa 31508.20100525235801.csv
"Sample    : Aa 31508",
"Operator  : luisf",
"Comment  : cubatao-g-policarbonato",
"Group     : kerr2007ag180cal_lt",
"Date       : 2010-05-25 23:53:50",
"",
"Mesurement Condition",
"------------------------------------------------------------------------------------",
"Instrument : 700HS2   Atmosphere : Vac.   Collimator : 10(mm)   Spin : No",
"------------------------------------------------------------------------------------",
"Analyte               TG kV   uA      FI Acq.(keV)  Anal.(keV)  Time(sec)     DT(%)",
"------------------------------------------------------------------------------------",
"Na                    Rh 50  360-Auto Al  0 - 20    0.8 - 1.2   Live -  179   15",
"",
"<Profile>",
"Channel_info_start",
"Channel : Na",
"Points : 2048",
"Range : 0.000000 - 20.48",
"Step : 0.010000",
"Channel_info_end",
"0",
"0",
"0",
"0",
"0",
"53",
"54",
"53",
"41",
"39",
"37",
"44",
"56",
"68",
"51",
"68",
"64",
"140",
"193",
"91",
"125",
"108",
"79",
"94",
"78",
"98",
"67",
"77",
"140",
"166",
"79",
"56",
"52",
"80",
"85",
"134",
"154",
"437",
"527",
"323",
"402",
"1087",
"6422",
"9196",
"3568",
"5142",
"3374",
"1454",
"1126",
"639",
"497",
"534",
"917",
"1443",
"583",
"152",
"87",
"179",
"167",
"73",
"46",
"48",
"47",
"56",
"65",
"69",
"78",
"77",
"74",
"43",
"61",
"55",
"66",
"72",
"65",
"86",
"96",
"112",
"101",
"108",
"93",
"88",
"69",
"79",
"68",
"103",
"96",
"119",
"154",
"203",
"205",
"233",
"221",
"219",
"183",
"189",
"166",
"170",
"127",
"134",
"118",
"119",
"117",
"118",
"132",
"105",
"99",
"135",
"147",
"145",
"140",
"168",
"131",
"180",
"171",
"216",
"187",
"186",
"183",
"203",
"189",
"212",
"229",
"238",
"213",
"187",
"144",
"155",
"163",
"165",
"145",
"171",
"176",
"172",
"159",
"177",
"190",
"196",
"163",
"157",
"164",
"152",
"137",
"158",
"158",
"183",
"120",
"133",
"137",
"139",
"108",
"132",
"143",
"140",
"145",
"132",
"142",
"148",
"159",
"151",
"157",
"148",
"135",
"172",
"174",
"166",
"135",
"160",
"121",
"120",
"128",
"139",
"141",
"137",
"121",
"150",
"127",
"156",
"150",
"130",
"115",
"135",
"130",
"130",
"109",
"126",
"119",
"135",
"119",
"107",
"118",
"121",
"112",
"121",
"116",
"131",
"126",
"112",
"115",
"124",
"124",
"107",
"103",
"103",
"118",
"105",
"114",
"112",
"116",
"127",
"107",
"113",
"89",
"103",
"100",
"74",
"107",
"114",
"109",
"72",
"101",
"99",
"86",
"83",
"107",
"77",
"95",
"88",
"92",
"82",
"108",
"90",
"78",
"96",
"90",
"95",
"91",
"92",
"89",
"89",
"92",
"104",
"83",
"100",
"72",
"107",
"87",
"102",
"68",
"89",
"94",
"91",
"92",
"86",
"80",
"95",
"85",
"103",
"90",
"103",
"99",
"99",
"117",
"120",
"102",
"143",
"134",
"157",
"195",
"236",
"274",
"405",
"479",
"491",
"533",
"537",
"462",
"429",
"306",
"244",
"169",
"145",
"117",
"144",
"182",
"247",
"301",
"335",
"296",
"208",
"127",
"107",
"87",
"227225",
"Channel_info_start",
"Channel : Mg",
"Points : 0",
"Range : 0.000000 - 0.000000",
"Step : 0.010000",
"Channel_info_end",
"Channel_info_start",
"Channel : Al",
"Points : 0",
"Range : 0.000000 - 0.000000",
"Step : 0.010000",
"Channel_info_end",
"Channel_info_start",
"Channel : Si",
"Points : 0",
"Range : 0.000000 - 0.000000",
"Step : 0.010000",
"Channel_info_end",
"Channel_info_start",
"Channel : P ",
"Points : 0",
"Range : 0.000000 - 0.000000",
"Step : 0.010000",
"Channel_info_end",
"Channel_info_start",
"Channel : S ",
"Points : 0",
"Range : 0.000000 - 0.000000",
"Step : 0.010000",
"Channel_info_end",
"Channel_info_start",
"Channel : Cl",
"Points : 0",
"Range : 0.000000 - 0.000000",
"Step : 0.010000",
"Channel_info_end",
"Channel_info_start",
"Channel : K ",
"Points : 0",
"Range : 0.000000 - 0.000000",
"Step : 0.010000",
"Channel_info_end",
"Channel_info_start",
"Channel : Ca",
"Points : 0",
"Range : 0.000000 - 0.000000",
"Step : 0.010000",
"Channel_info_end",
"Channel_info_start",
"Channel : Ti",
"Points : 0",
"Range : 0.000000 - 0.000000",
"Step : 0.010000",
"Channel_info_end",
"Channel_info_start",
"Channel : V ",
"Points : 0",
"Range : 0.000000 - 0.000000",
"Step : 0.010000",
"Channel_info_end",
"Channel_info_start",
"Channel : Cr",
"Points : 0",
"Range : 0.000000 - 0.000000",
"Step : 0.010000",
"Channel_info_end",
"Channel_info_start",
"Channel : Mn",
"Points : 0",
"Range : 0.000000 - 0.000000",
"Step : 0.010000",
"Channel_info_end",
"Channel_info_start",
"Channel : Fe",
"Points : 0",
"Range : 0.000000 - 0.000000",
"Step : 0.010000",
"Channel_info_end",
"Channel_info_start",
"Channel : Cu",
"Points : 0",
"Range : 0.000000 - 0.000000",
"Step : 0.010000",
"Channel_info_end",
"Channel_info_start",
"Channel : Zn",
"Points : 0",
"Range : 0.000000 - 0.000000",
"Step : 0.010000",
"Channel_info_end",
"Channel_info_start",
"Channel : Sr",
"Points : 0",
"Range : 0.000000 - 0.000000",
"Step : 0.010000",
"Channel_info_end",
"Channel_info_start",
"Channel : Pb",
"Points : 0",
"Range : 0.000000 - 0.000000",
"Step : 0.010000",
"Channel_info_end",
"",
"Qualitative Result",
"--------------------------------------------------------------------------------",
"Element :  Mg, Al, P , Cl, Cd, Rh",
"",
"Peak List",
"--------------------------------------------------------------------------------",
"Channel               Line        keV     Net Int.(cps/uA)",
"--------------------------------------------------------------------------------",
"Na                    MgKa         1.23     0.027",
"                      AlKa         1.43     0.013",
"                      P Ka         2.00     0.019",
"                      ClKa         2.64     0.070",
"                      ----         2.98     1.923",
"                      CdLa         3.16     0.977",
"                      CdLb1        3.36     0.173",
"                      CdLb2        3.52     0.037",
"                      CdLg1        3.70     0.274",
"                      CdLg2        4.01     0.030",
"                      ----         6.21     0.023",
"                      CdLaSUM      6.36     0.037",
"                      ----         8.63     0.027",
"                      ----        18.98     0.087",
"                      RhKaC       19.20     0.140",
"                      ----        19.48     0.051",
"                      RhKa        20.07     0.081",
"--------------------------------------------------------------------------------",
"",
"Quantitative Result",
"--------------------------------------------------------------------------------",
"Analyte               Result             Std.Dev. Proc.-Calc. Line Intensity(cps/uA)",
"--------------------------------------------------------------------------------",
"====[No. 1 Layer]====< Layer1               >===============================",
"Layer1                   8.789 ug/cm2    -------- Flux       -------- --------",
"Mg                       8.789 ug/cm2    -------- ********** -------- --------",