File: inputs/edxCalibration/edx_raw/2010/junho/Ag 31508.20100611023115.csv
"Sample    : Ag 31508",
"Operator  : Luís",
"Comment  : cubatao-g-policarbonato",
"Group     : kerr2007ag180cal_lt",
"Date       : 2010-06-11 02:27:02",
"",
"Mesurement Condition",
"------------------------------------------------------------------------------------",
"Instrument : 700HS2   Atmosphere : Vac.   Collimator : 10(mm)   Spin : No",
"------------------------------------------------------------------------------------",
"Analyte               TG kV   uA      FI Acq.(keV)  Anal.(keV)  Time(sec)     DT(%)",
"------------------------------------------------------------------------------------",
"Na                    Rh 50  393-Auto Al  0 - 20    0.8 - 1.2   Live -  179   15",
"",
"<Profile>",
"Channel_info_start",
"Channel : Na",
"Points : 2048",
"Range : 0.000000 - 20.48",
"Step : 0.010000",
"Channel_info_end",
"0",
"0",
"0",
"0",
"1",
"53",
"48",
"54",
"52",
"44",
"45",
"52",
"65",
"61",
"44",
"62",
"73",
"163",
"187",
"106",
"149",
"121",
"75",
"75",
"77",
"90",
"81",
"88",
"132",
"155",
"76",
"65",
"63",
"80",
"83",
"111",
"160",
"447",
"594",
"389",
"419",
"1246",
"6908",
"9885",
"4008",
"5399",
"3649",
"1638",
"1219",
"665",
"464",
"502",
"1019",
"1541",
"590",
"161",
"85",
"195",
"137",
"66",
"51",
"36",
"53",
"59",
"62",
"77",
"84",
"85",
"53",
"59",
"69",
"58",
"54",
"72",
"69",
"102",
"93",
"101",
"102",
"119",
"100",
"85",
"81",
"102",
"99",
"112",
"107",
"156",
"182",
"247",
"224",
"279",
"260",
"245",
"194",
"181",
"164",
"171",
"163",
"149",
"126",
"156",
"130",
"132",
"122",
"121",
"161",
"158",
"132",
"135",
"168",
"137",
"154",
"169",
"187",
"218",
"225",
"199",
"196",
"224",
"224",
"243",
"229",
"291",
"257",
"180",
"149",
"156",
"147",
"151",
"185",
"169",
"171",
"170",
"178",
"187",
"162",
"222",
"154",
"192",
"186",
"169",
"145",
"209",
"176",
"179",
"146",
"146",
"109",
"129",
"156",
"159",
"156",
"163",
"152",
"159",
"170",
"152",
"147",
"180",
"169",
"179",
"163",
"145",
"176",
"140",
"151",
"178",
"173",
"138",
"145",
"161",
"129",
"136",
"136",
"169",
"147",
"143",
"133",
"142",
"151",
"126",
"151",
"129",
"137",
"130",
"120",
"156",
"140",
"137",
"145",
"122",
"122",
"123",
"135",
"100",
"121",
"134",
"125",
"119",
"132",
"145",
"111",
"119",
"119",
"121",
"102",
"123",
"111",
"108",
"102",
"140",
"109",
"120",
"83",
"122",
"98",
"123",
"88",
"108",
"101",
"100",
"112",
"109",
"98",
"101",
"94",
"78",
"110",
"118",
"99",
"103",
"98",
"93",
"97",
"118",
"105",
"113",
"96",
"107",
"90",
"113",
"119",
"103",
"101",
"113",
"95",
"118",
"102",
"108",
"83",
"98",
"106",
"110",
"86",
"90",
"121",
"89",
"98",
"108",
"106",
"113",
"109",
"108",
"139",
"144",
"152",
"192",
"206",
"249",
"328",
"443",
"498",
"534",
"525",
"551",
"470",
"404",
"298",
"264",
"218",
"174",
"161",
"154",
"182",
"258",
"330",
"357",
"337",
"232",
"136",
"93",
"99",
"244528",
"Channel_info_start",
"Channel : Mg",
"Points : 0",
"Range : 0.000000 - 0.000000",
"Step : 0.010000",
"Channel_info_end",
"Channel_info_start",
"Channel : Al",
"Points : 0",
"Range : 0.000000 - 0.000000",
"Step : 0.010000",
"Channel_info_end",
"Channel_info_start",
"Channel : Si",
"Points : 0",
"Range : 0.000000 - 0.000000",
"Step : 0.010000",
"Channel_info_end",
"Channel_info_start",
"Channel : P ",
"Points : 0",
"Range : 0.000000 - 0.000000",
"Step : 0.010000",
"Channel_info_end",
"Channel_info_start",
"Channel : S ",
"Points : 0",
"Range : 0.000000 - 0.000000",
"Step : 0.010000",
"Channel_info_end",
"Channel_info_start",
"Channel : Cl",
"Points : 0",
"Range : 0.000000 - 0.000000",
"Step : 0.010000",
"Channel_info_end",
"Channel_info_start",
"Channel : K ",
"Points : 0",
"Range : 0.000000 - 0.000000",
"Step : 0.010000",
"Channel_info_end",
"Channel_info_start",
"Channel : Ca",
"Points : 0",
"Range : 0.000000 - 0.000000",
"Step : 0.010000",
"Channel_info_end",
"Channel_info_start",
"Channel : Ti",
"Points : 0",
"Range : 0.000000 - 0.000000",
"Step : 0.010000",
"Channel_info_end",
"Channel_info_start",
"Channel : V ",
"Points : 0",
"Range : 0.000000 - 0.000000",
"Step : 0.010000",
"Channel_info_end",
"Channel_info_start",
"Channel : Cr",
"Points : 0",
"Range : 0.000000 - 0.000000",
"Step : 0.010000",
"Channel_info_end",
"Channel_info_start",
"Channel : Mn",
"Points : 0",
"Range : 0.000000 - 0.000000",
"Step : 0.010000",
"Channel_info_end",
"Channel_info_start",
"Channel : Fe",
"Points : 0",
"Range : 0.000000 - 0.000000",
"Step : 0.010000",
"Channel_info_end",
"Channel_info_start",
"Channel : Cu",
"Points : 0",
"Range : 0.000000 - 0.000000",
"Step : 0.010000",
"Channel_info_end",
"Channel_info_start",
"Channel : Zn",
"Points : 0",
"Range : 0.000000 - 0.000000",
"Step : 0.010000",
"Channel_info_end",
"Channel_info_start",
"Channel : Sr",
"Points : 0",
"Range : 0.000000 - 0.000000",
"Step : 0.010000",
"Channel_info_end",
"Channel_info_start",
"Channel : Pb",
"Points : 0",
"Range : 0.000000 - 0.000000",
"Step : 0.010000",
"Channel_info_end",
"",
"Qualitative Result",
"--------------------------------------------------------------------------------",
"Element :  Mg, Al, P , Cl, In, K , Ca, Rh",
"",
"Peak List",
"--------------------------------------------------------------------------------",
"Channel               Line        keV     Net Int.(cps/uA)",
"--------------------------------------------------------------------------------",
"Na                    MgKa         1.24     0.025",
"                      AlKa         1.44     0.014",
"                      P Ka         2.00     0.018",
"                      ClKa         2.64     0.067",
"                      ----         2.98     1.892",
"                      ----         3.16     0.949",
"                      InLa         3.29     0.049",
"                      K Ka         3.38     0.126",
"                      K Kb         3.52     0.018",
"                      InLb1        3.52     0.024",
"                      CaKa         3.69     0.269",
"                      CaKb         4.02     0.025",
"                      ----         6.16     0.019",
"                      ----         6.41     0.030",
"                      RhKaC       19.23     0.118",
"                      ----        19.51     0.038",
"                      RhKa        20.09     0.079",
"--------------------------------------------------------------------------------",
"",
"Quantitative Result",
"--------------------------------------------------------------------------------",
"Analyte               Result             Std.Dev. Proc.-Calc. Line Intensity(cps/uA)",
"--------------------------------------------------------------------------------",
"====[No. 1 Layer]====< Layer1               >===============================",
"Layer1                   8.246 ug/cm2    -------- Flux       -------- --------",
"Mg                       8.246 ug/cm2    -------- ********** -------- --------",