File: inputs/edxCalibration/edx_raw/2010/junho/Al 31492.20100525201543.csv
"Sample    : Al 31492",
"Operator  : thiago",
"Comment  : cubatao-g-policarbonato",
"Group     : kerr2007ag180cal_lt",
"Date       : 2010-05-25 20:11:30",
"",
"Mesurement Condition",
"------------------------------------------------------------------------------------",
"Instrument : 700HS2   Atmosphere : Vac.   Collimator : 10(mm)   Spin : No",
"------------------------------------------------------------------------------------",
"Analyte               TG kV   uA      FI Acq.(keV)  Anal.(keV)  Time(sec)     DT(%)",
"------------------------------------------------------------------------------------",
"Na                    Rh 50  970-Auto Al  0 - 20    0.8 - 1.2   Live -  179   15",
"",
"<Profile>",
"Channel_info_start",
"Channel : Na",
"Points : 2048",
"Range : 0.000000 - 20.48",
"Step : 0.010000",
"Channel_info_end",
"0",
"0",
"0",
"0",
"0",
"57",
"56",
"58",
"61",
"36",
"64",
"53",
"51",
"46",
"53",
"50",
"59",
"79",
"102",
"173",
"1266",
"6657",
"3450",
"330",
"79",
"74",
"56",
"76",
"208",
"274",
"100",
"42",
"39",
"46",
"46",
"48",
"36",
"40",
"59",
"48",
"50",
"69",
"60",
"42",
"57",
"50",
"53",
"60",
"83",
"50",
"96",
"533",
"2514",
"3579",
"1088",
"212",
"259",
"554",
"364",
"132",
"79",
"107",
"118",
"149",
"179",
"208",
"177",
"158",
"150",
"156",
"149",
"150",
"137",
"144",
"138",
"175",
"191",
"231",
"226",
"201",
"179",
"200",
"197",
"221",
"191",
"211",
"218",
"267",
"283",
"341",
"322",
"383",
"410",
"389",
"319",
"370",
"353",
"331",
"307",
"343",
"331",
"294",
"283",
"291",
"337",
"337",
"322",
"307",
"329",
"349",
"319",
"340",
"346",
"361",
"391",
"411",
"458",
"366",
"315",
"409",
"379",
"452",
"496",
"598",
"568",
"450",
"376",
"357",
"343",
"357",
"353",
"380",
"336",
"358",
"348",
"357",
"421",
"361",
"348",
"371",
"344",
"320",
"344",
"356",
"333",
"323",
"337",
"317",
"318",
"342",
"281",
"341",
"321",
"353",
"293",
"321",
"308",
"314",
"325",
"328",
"344",
"329",
"320",
"335",
"294",
"346",
"302",
"319",
"304",
"307",
"363",
"347",
"321",
"292",
"307",
"320",
"284",
"265",
"294",
"341",
"285",
"320",
"297",
"307",
"323",
"277",
"285",
"290",
"270",
"283",
"283",
"302",
"274",
"255",
"281",
"261",
"269",
"259",
"271",
"259",
"263",
"269",
"295",
"260",
"237",
"235",
"231",
"263",
"225",
"257",
"220",
"254",
"219",
"239",
"233",
"238",
"259",
"247",
"244",
"246",
"192",
"204",
"231",
"207",
"245",
"209",
"229",
"206",
"204",
"212",
"249",
"219",
"219",
"220",
"224",
"207",
"220",
"195",
"187",
"204",
"197",
"207",
"206",
"223",
"237",
"213",
"199",
"208",
"202",
"187",
"220",
"189",
"225",
"191",
"193",
"207",
"224",
"198",
"209",
"261",
"244",
"256",
"246",
"284",
"298",
"352",
"340",
"431",
"523",
"642",
"825",
"1053",
"1335",
"1349",
"1449",
"1451",
"1277",
"1006",
"826",
"700",
"499",
"366",
"321",
"318",
"383",
"463",
"524",
"592",
"531",
"370",
"250",
"230",
"206",
"100627",
"Channel_info_start",
"Channel : Mg",
"Points : 0",
"Range : 0.000000 - 0.000000",
"Step : 0.010000",
"Channel_info_end",
"Channel_info_start",
"Channel : Al",
"Points : 0",
"Range : 0.000000 - 0.000000",
"Step : 0.010000",
"Channel_info_end",
"Channel_info_start",
"Channel : Si",
"Points : 0",
"Range : 0.000000 - 0.000000",
"Step : 0.010000",
"Channel_info_end",
"Channel_info_start",
"Channel : P ",
"Points : 0",
"Range : 0.000000 - 0.000000",
"Step : 0.010000",
"Channel_info_end",
"Channel_info_start",
"Channel : S ",
"Points : 0",
"Range : 0.000000 - 0.000000",
"Step : 0.010000",
"Channel_info_end",
"Channel_info_start",
"Channel : Cl",
"Points : 0",
"Range : 0.000000 - 0.000000",
"Step : 0.010000",
"Channel_info_end",
"Channel_info_start",
"Channel : K ",
"Points : 0",
"Range : 0.000000 - 0.000000",
"Step : 0.010000",
"Channel_info_end",
"Channel_info_start",
"Channel : Ca",
"Points : 0",
"Range : 0.000000 - 0.000000",
"Step : 0.010000",
"Channel_info_end",
"Channel_info_start",
"Channel : Ti",
"Points : 0",
"Range : 0.000000 - 0.000000",
"Step : 0.010000",
"Channel_info_end",
"Channel_info_start",
"Channel : V ",
"Points : 0",
"Range : 0.000000 - 0.000000",
"Step : 0.010000",
"Channel_info_end",
"Channel_info_start",
"Channel : Cr",
"Points : 0",
"Range : 0.000000 - 0.000000",
"Step : 0.010000",
"Channel_info_end",
"Channel_info_start",
"Channel : Mn",
"Points : 0",
"Range : 0.000000 - 0.000000",
"Step : 0.010000",
"Channel_info_end",
"Channel_info_start",
"Channel : Fe",
"Points : 0",
"Range : 0.000000 - 0.000000",
"Step : 0.010000",
"Channel_info_end",
"Channel_info_start",
"Channel : Cu",
"Points : 0",
"Range : 0.000000 - 0.000000",
"Step : 0.010000",
"Channel_info_end",
"Channel_info_start",
"Channel : Zn",
"Points : 0",
"Range : 0.000000 - 0.000000",
"Step : 0.010000",
"Channel_info_end",
"Channel_info_start",
"Channel : Sr",
"Points : 0",
"Range : 0.000000 - 0.000000",
"Step : 0.010000",
"Channel_info_end",
"Channel_info_start",
"Channel : Pb",
"Points : 0",
"Range : 0.000000 - 0.000000",
"Step : 0.010000",
"Channel_info_end",
"",
"Qualitative Result",
"--------------------------------------------------------------------------------",
"Element :  Al, P , Ca, Rh",
"",
"Peak List",
"--------------------------------------------------------------------------------",
"Channel               Line        keV     Net Int.(cps/uA)",
"--------------------------------------------------------------------------------",
"Na                    AlKa         1.48     0.446",
"                      P Ka         2.00     0.019",
"                      CaKa         3.68     0.291",
"                      CaKb         4.02     0.033",
"                      ----         6.42     0.011",
"                      ----         8.64     0.028",
"                      RhKaC       19.17     0.134",
"                      ----        19.44     0.069",
"                      RhKa        20.08     0.043",
"--------------------------------------------------------------------------------",
"",
"Quantitative Result",
"--------------------------------------------------------------------------------",
"Analyte               Result             Std.Dev. Proc.-Calc. Line Intensity(cps/uA)",
"--------------------------------------------------------------------------------",
"====[No. 1 Layer]====< Layer1               >===============================",
"Layer1                   0.000 ug/cm2    -------- Flux       -------- --------",