File: inputs/edxCalibration/edx_raw/2010/junho/Al 31492.20100611003131.csv
"Sample    : Al 31492",
"Operator  : thiago",
"Comment  : cubatao-g-policarbonato",
"Group     : kerr2007ag180cal_lt",
"Date       : 2010-06-11 00:27:19",
"",
"Mesurement Condition",
"------------------------------------------------------------------------------------",
"Instrument : 700HS2   Atmosphere : Vac.   Collimator : 10(mm)   Spin : No",
"------------------------------------------------------------------------------------",
"Analyte               TG kV   uA      FI Acq.(keV)  Anal.(keV)  Time(sec)     DT(%)",
"------------------------------------------------------------------------------------",
"Na                    Rh 50  970-Auto Al  0 - 20    0.8 - 1.2   Live -  179   15",
"",
"<Profile>",
"Channel_info_start",
"Channel : Na",
"Points : 2048",
"Range : 0.000000 - 20.48",
"Step : 0.010000",
"Channel_info_end",
"0",
"0",
"0",
"0",
"1",
"53",
"48",
"46",
"46",
"48",
"41",
"46",
"48",
"51",
"48",
"53",
"58",
"71",
"100",
"163",
"1317",
"6454",
"3458",
"335",
"83",
"90",
"57",
"84",
"221",
"269",
"97",
"49",
"40",
"52",
"44",
"46",
"28",
"39",
"52",
"58",
"48",
"60",
"53",
"59",
"61",
"47",
"67",
"61",
"61",
"61",
"123",
"579",
"2493",
"3472",
"1119",
"237",
"273",
"504",
"413",
"142",
"86",
"135",
"151",
"164",
"180",
"183",
"184",
"159",
"162",
"110",
"152",
"145",
"137",
"135",
"151",
"160",
"188",
"211",
"205",
"223",
"186",
"151",
"181",
"195",
"216",
"221",
"238",
"281",
"265",
"340",
"356",
"397",
"366",
"369",
"315",
"334",
"358",
"333",
"319",
"311",
"332",
"294",
"299",
"316",
"286",
"324",
"325",
"298",
"334",
"328",
"339",
"371",
"336",
"372",
"391",
"420",
"378",
"385",
"385",
"357",
"417",
"469",
"551",
"606",
"546",
"460",
"353",
"383",
"373",
"313",
"371",
"332",
"346",
"337",
"340",
"356",
"336",
"426",
"327",
"328",
"334",
"334",
"312",
"354",
"280",
"318",
"286",
"307",
"295",
"339",
"347",
"332",
"319",
"358",
"297",
"324",
"303",
"345",
"333",
"306",
"328",
"328",
"282",
"334",
"349",
"312",
"306",
"347",
"311",
"299",
"340",
"317",
"306",
"285",
"280",
"299",
"308",
"292",
"286",
"333",
"287",
"293",
"275",
"320",
"287",
"297",
"245",
"281",
"295",
"276",
"268",
"269",
"269",
"270",
"257",
"249",
"288",
"249",
"275",
"269",
"284",
"256",
"319",
"278",
"275",
"255",
"228",
"251",
"253",
"243",
"238",
"248",
"220",
"235",
"195",
"263",
"238",
"205",
"216",
"251",
"199",
"230",
"226",
"245",
"243",
"247",
"209",
"241",
"201",
"213",
"199",
"205",
"205",
"228",
"222",
"204",
"209",
"204",
"219",
"204",
"183",
"197",
"175",
"224",
"223",
"208",
"193",
"204",
"210",
"214",
"182",
"238",
"205",
"214",
"195",
"202",
"259",
"236",
"206",
"217",
"242",
"244",
"262",
"267",
"281",
"331",
"336",
"442",
"485",
"674",
"825",
"1038",
"1283",
"1430",
"1433",
"1391",
"1281",
"1141",
"821",
"617",
"477",
"399",
"321",
"348",
"370",
"454",
"569",
"590",
"599",
"417",
"278",
"200",
"204",
"99730",
"Channel_info_start",
"Channel : Mg",
"Points : 0",
"Range : 0.000000 - 0.000000",
"Step : 0.010000",
"Channel_info_end",
"Channel_info_start",
"Channel : Al",
"Points : 0",
"Range : 0.000000 - 0.000000",
"Step : 0.010000",
"Channel_info_end",
"Channel_info_start",
"Channel : Si",
"Points : 0",
"Range : 0.000000 - 0.000000",
"Step : 0.010000",
"Channel_info_end",
"Channel_info_start",
"Channel : P ",
"Points : 0",
"Range : 0.000000 - 0.000000",
"Step : 0.010000",
"Channel_info_end",
"Channel_info_start",
"Channel : S ",
"Points : 0",
"Range : 0.000000 - 0.000000",
"Step : 0.010000",
"Channel_info_end",
"Channel_info_start",
"Channel : Cl",
"Points : 0",
"Range : 0.000000 - 0.000000",
"Step : 0.010000",
"Channel_info_end",
"Channel_info_start",
"Channel : K ",
"Points : 0",
"Range : 0.000000 - 0.000000",
"Step : 0.010000",
"Channel_info_end",
"Channel_info_start",
"Channel : Ca",
"Points : 0",
"Range : 0.000000 - 0.000000",
"Step : 0.010000",
"Channel_info_end",
"Channel_info_start",
"Channel : Ti",
"Points : 0",
"Range : 0.000000 - 0.000000",
"Step : 0.010000",
"Channel_info_end",
"Channel_info_start",
"Channel : V ",
"Points : 0",
"Range : 0.000000 - 0.000000",
"Step : 0.010000",
"Channel_info_end",
"Channel_info_start",
"Channel : Cr",
"Points : 0",
"Range : 0.000000 - 0.000000",
"Step : 0.010000",
"Channel_info_end",
"Channel_info_start",
"Channel : Mn",
"Points : 0",
"Range : 0.000000 - 0.000000",
"Step : 0.010000",
"Channel_info_end",
"Channel_info_start",
"Channel : Fe",
"Points : 0",
"Range : 0.000000 - 0.000000",
"Step : 0.010000",
"Channel_info_end",
"Channel_info_start",
"Channel : Cu",
"Points : 0",
"Range : 0.000000 - 0.000000",
"Step : 0.010000",
"Channel_info_end",
"Channel_info_start",
"Channel : Zn",
"Points : 0",
"Range : 0.000000 - 0.000000",
"Step : 0.010000",
"Channel_info_end",
"Channel_info_start",
"Channel : Sr",
"Points : 0",
"Range : 0.000000 - 0.000000",
"Step : 0.010000",
"Channel_info_end",
"Channel_info_start",
"Channel : Pb",
"Points : 0",
"Range : 0.000000 - 0.000000",
"Step : 0.010000",
"Channel_info_end",
"",
"Qualitative Result",
"--------------------------------------------------------------------------------",
"Element :  Al, P , Ca, Fe, Rh",
"",
"Peak List",
"--------------------------------------------------------------------------------",
"Channel               Line        keV     Net Int.(cps/uA)",
"--------------------------------------------------------------------------------",
"Na                    AlKa         1.48     0.428",
"                      P Ka         2.01     0.017",
"                      CaKa         3.68     0.283",
"                      CaKb         4.01     0.037",
"                      FeKa         6.40     0.014",
"                      ----         8.62     0.029",
"                      RhKaC       19.20     0.145",
"                      ----        19.56     0.027",
"                      RhKa        20.05     0.038",
"--------------------------------------------------------------------------------",
"",
"Quantitative Result",
"--------------------------------------------------------------------------------",
"Analyte               Result             Std.Dev. Proc.-Calc. Line Intensity(cps/uA)",
"--------------------------------------------------------------------------------",
"====[No. 1 Layer]====< Layer1               >===============================",
"Layer1                   0.000 ug/cm2    -------- Flux       -------- --------",