File: inputs/edxCalibration/edx_raw/2010/junho/Au 15771.20100626151105.csv
"Sample    : Au 15771",
"Operator  : thiago",
"Comment  : cubatao-g-policarbonato",
"Group     : kerr2007ag180cal_lt",
"Date       : 2010-06-26 15:07:00",
"",
"Mesurement Condition",
"------------------------------------------------------------------------------------",
"Instrument : 700HS2   Atmosphere : Vac.   Collimator : 10(mm)   Spin : No",
"------------------------------------------------------------------------------------",
"Analyte               TG kV   uA      FI Acq.(keV)  Anal.(keV)  Time(sec)     DT(%)",
"------------------------------------------------------------------------------------",
"Na                    Rh 50  187-Auto Al  0 - 20    0.8 - 1.2   Live -  179   16",
"",
"<Profile>",
"Channel_info_start",
"Channel : Na",
"Points : 2048",
"Range : 0.000000 - 20.48",
"Step : 0.010000",
"Channel_info_end",
"0",
"0",
"0",
"0",
"0",
"91",
"101",
"69",
"36",
"33",
"32",
"38",
"29",
"34",
"27",
"28",
"34",
"27",
"26",
"34",
"29",
"32",
"49",
"192",
"348",
"167",
"153",
"211",
"320",
"684",
"2834",
"4128",
"2537",
"570",
"370",
"380",
"96",
"32",
"46",
"101",
"166",
"112",
"32",
"20",
"25",
"34",
"29",
"33",
"20",
"26",
"15",
"57",
"304",
"412",
"145",
"49",
"41",
"70",
"58",
"22",
"27",
"21",
"28",
"31",
"29",
"41",
"33",
"32",
"35",
"34",
"21",
"29",
"23",
"31",
"44",
"51",
"56",
"74",
"85",
"58",
"58",
"41",
"44",
"47",
"61",
"55",
"68",
"112",
"104",
"166",
"154",
"187",
"195",
"169",
"136",
"112",
"119",
"108",
"88",
"96",
"71",
"73",
"75",
"69",
"69",
"76",
"94",
"83",
"83",
"73",
"97",
"112",
"93",
"101",
"147",
"137",
"133",
"118",
"140",
"221",
"495",
"764",
"709",
"446",
"223",
"153",
"119",
"111",
"124",
"113",
"115",
"145",
"115",
"143",
"192",
"351",
"1443",
"4979",
"10254",
"12274",
"6937",
"2139",
"401",
"199",
"118",
"154",
"195",
"263",
"213",
"127",
"109",
"91",
"116",
"97",
"106",
"105",
"140",
"166",
"346",
"634",
"903",
"1471",
"3340",
"6115",
"6684",
"5355",
"3263",
"1863",
"756",
"419",
"337",
"320",
"215",
"161",
"120",
"84",
"83",
"75",
"73",
"89",
"79",
"76",
"67",
"72",
"112",
"107",
"113",
"110",
"144",
"444",
"822",
"1192",
"983",
"575",
"308",
"323",
"406",
"377",
"266",
"148",
"92",
"81",
"85",
"115",
"108",
"99",
"87",
"59",
"80",
"46",
"70",
"53",
"63",
"47",
"62",
"50",
"53",
"64",
"56",
"51",
"45",
"39",
"67",
"58",
"52",
"58",
"35",
"56",
"60",
"47",
"48",
"52",
"47",
"51",
"51",
"39",
"48",
"47",
"34",
"46",
"55",
"61",
"49",
"45",
"62",
"58",
"49",
"46",
"51",
"40",
"52",
"48",
"55",
"47",
"55",
"46",
"60",
"50",
"56",
"53",
"44",
"61",
"57",
"56",
"74",
"71",
"70",
"87",
"100",
"124",
"132",
"218",
"270",
"272",
"303",
"273",
"276",
"213",
"155",
"140",
"106",
"74",
"69",
"86",
"113",
"188",
"243",
"257",
"256",
"163",
"98",
"51",
"48",
"23200",
"Channel_info_start",
"Channel : Mg",
"Points : 0",
"Range : 0.000000 - 0.000000",
"Step : 0.010000",
"Channel_info_end",
"Channel_info_start",
"Channel : Al",
"Points : 0",
"Range : 0.000000 - 0.000000",
"Step : 0.010000",
"Channel_info_end",
"Channel_info_start",
"Channel : Si",
"Points : 0",
"Range : 0.000000 - 0.000000",
"Step : 0.010000",
"Channel_info_end",
"Channel_info_start",
"Channel : P ",
"Points : 0",
"Range : 0.000000 - 0.000000",
"Step : 0.010000",
"Channel_info_end",
"Channel_info_start",
"Channel : S ",
"Points : 0",
"Range : 0.000000 - 0.000000",
"Step : 0.010000",
"Channel_info_end",
"Channel_info_start",
"Channel : Cl",
"Points : 0",
"Range : 0.000000 - 0.000000",
"Step : 0.010000",
"Channel_info_end",
"Channel_info_start",
"Channel : K ",
"Points : 0",
"Range : 0.000000 - 0.000000",
"Step : 0.010000",
"Channel_info_end",
"Channel_info_start",
"Channel : Ca",
"Points : 0",
"Range : 0.000000 - 0.000000",
"Step : 0.010000",
"Channel_info_end",
"Channel_info_start",
"Channel : Ti",
"Points : 0",
"Range : 0.000000 - 0.000000",
"Step : 0.010000",
"Channel_info_end",
"Channel_info_start",
"Channel : V ",
"Points : 0",
"Range : 0.000000 - 0.000000",
"Step : 0.010000",
"Channel_info_end",
"Channel_info_start",
"Channel : Cr",
"Points : 0",
"Range : 0.000000 - 0.000000",
"Step : 0.010000",
"Channel_info_end",
"Channel_info_start",
"Channel : Mn",
"Points : 0",
"Range : 0.000000 - 0.000000",
"Step : 0.010000",
"Channel_info_end",
"Channel_info_start",
"Channel : Fe",
"Points : 0",
"Range : 0.000000 - 0.000000",
"Step : 0.010000",
"Channel_info_end",
"Channel_info_start",
"Channel : Cu",
"Points : 0",
"Range : 0.000000 - 0.000000",
"Step : 0.010000",
"Channel_info_end",
"Channel_info_start",
"Channel : Zn",
"Points : 0",
"Range : 0.000000 - 0.000000",
"Step : 0.010000",
"Channel_info_end",
"Channel_info_start",
"Channel : Sr",
"Points : 0",
"Range : 0.000000 - 0.000000",
"Step : 0.010000",
"Channel_info_end",
"Channel_info_start",
"Channel : Pb",
"Points : 0",
"Range : 0.000000 - 0.000000",
"Step : 0.010000",
"Channel_info_end",
"",
"Qualitative Result",
"--------------------------------------------------------------------------------",
"Element :  Ca, Rb, Au, Cr, W , Rh",
"",
"Peak List",
"--------------------------------------------------------------------------------",
"Channel               Line        keV     Net Int.(cps/uA)",
"--------------------------------------------------------------------------------",
"Na                    CaLa         0.38     0.019",
"                      RbLa         1.67     0.093",
"                      AuMa         2.15     1.546",
"                      ----         2.43     0.123",
"                      ----         2.80     0.052",
"                      CaKa         3.68     0.157",
"                      CaKb         4.02     0.021",
"                      CrKa         5.46     0.022",
"                      ----         6.22     0.033",
"                      ----         6.41     0.058",
"                      ----         6.58     0.037",
"                      AuLL         8.49     0.200",
"                      W La         8.49     0.177",
"                      W Lb1        9.67     0.142",
"                      AuLa         9.72     6.656",
"                      ----        10.28     0.081",
"                      AuLb4       11.14     0.218",
"                      AuLb1       11.45     3.537",
"                      AuLg1       13.36     0.626",
"                      AuLg2       13.77     0.169",
"                      RhKaC       19.24     0.133",
"                      RhKa        20.09     0.136",
"--------------------------------------------------------------------------------",
"",
"Quantitative Result",
"--------------------------------------------------------------------------------",
"Analyte               Result             Std.Dev. Proc.-Calc. Line Intensity(cps/uA)",
"--------------------------------------------------------------------------------",
"====[No. 1 Layer]====< Layer1               >===============================",
"Layer1                   0.000 ug/cm2    -------- Flux       -------- --------",