File: inputs/edxCalibration/edx_raw/2010/junho/BaF2 31514.20100526004310.csv
"Sample    : BaF2 31514",
"Operator  : luisf",
"Comment  : cubatao-g-policarbonato",
"Group     : kerr2007ag180cal_lt",
"Date       : 2010-05-26 00:38:59",
"",
"Mesurement Condition",
"------------------------------------------------------------------------------------",
"Instrument : 700HS2   Atmosphere : Vac.   Collimator : 10(mm)   Spin : No",
"------------------------------------------------------------------------------------",
"Analyte               TG kV   uA      FI Acq.(keV)  Anal.(keV)  Time(sec)     DT(%)",
"------------------------------------------------------------------------------------",
"Na                    Rh 50  360-Auto Al  0 - 20    0.8 - 1.2   Live -  179   15",
"",
"<Profile>",
"Channel_info_start",
"Channel : Na",
"Points : 2048",
"Range : 0.000000 - 20.48",
"Step : 0.010000",
"Channel_info_end",
"0",
"0",
"0",
"0",
"0",
"28",
"25",
"28",
"23",
"26",
"25",
"42",
"45",
"28",
"46",
"71",
"49",
"31",
"29",
"38",
"36",
"26",
"32",
"35",
"36",
"63",
"51",
"59",
"115",
"109",
"37",
"45",
"33",
"32",
"32",
"39",
"26",
"63",
"107",
"144",
"78",
"53",
"46",
"65",
"98",
"88",
"59",
"48",
"58",
"56",
"69",
"227",
"902",
"1434",
"442",
"254",
"620",
"856",
"355",
"188",
"162",
"362",
"1763",
"10227",
"15099",
"5655",
"695",
"782",
"4523",
"9715",
"6429",
"2537",
"1014",
"1982",
"2340",
"955",
"231",
"256",
"760",
"1387",
"751",
"357",
"522",
"744",
"393",
"248",
"200",
"146",
"129",
"124",
"145",
"208",
"168",
"166",
"161",
"133",
"117",
"136",
"117",
"113",
"134",
"132",
"146",
"147",
"147",
"149",
"160",
"146",
"145",
"171",
"145",
"163",
"185",
"221",
"198",
"216",
"198",
"196",
"149",
"158",
"132",
"191",
"191",
"217",
"209",
"165",
"167",
"181",
"169",
"161",
"183",
"186",
"172",
"185",
"178",
"187",
"146",
"154",
"145",
"171",
"138",
"143",
"135",
"158",
"144",
"138",
"133",
"149",
"141",
"126",
"136",
"159",
"148",
"161",
"147",
"146",
"141",
"166",
"151",
"131",
"131",
"151",
"138",
"145",
"137",
"141",
"125",
"154",
"112",
"129",
"133",
"127",
"138",
"127",
"143",
"126",
"129",
"134",
"117",
"132",
"131",
"130",
"130",
"124",
"135",
"130",
"108",
"105",
"114",
"118",
"132",
"126",
"125",
"123",
"107",
"100",
"121",
"111",
"121",
"94",
"129",
"141",
"130",
"120",
"96",
"110",
"87",
"108",
"121",
"118",
"101",
"101",
"102",
"105",
"94",
"80",
"94",
"92",
"85",
"82",
"87",
"94",
"92",
"96",
"107",
"90",
"85",
"72",
"84",
"78",
"74",
"74",
"96",
"92",
"72",
"82",
"77",
"80",
"88",
"98",
"78",
"82",
"70",
"80",
"96",
"93",
"80",
"97",
"92",
"84",
"85",
"90",
"86",
"76",
"93",
"84",
"96",
"80",
"101",
"96",
"113",
"94",
"78",
"113",
"121",
"122",
"136",
"153",
"163",
"229",
"284",
"381",
"434",
"497",
"496",
"512",
"455",
"389",
"306",
"231",
"174",
"138",
"123",
"130",
"185",
"257",
"285",
"377",
"333",
"179",
"131",
"97",
"77",
"52486",
"Channel_info_start",
"Channel : Mg",
"Points : 0",
"Range : 0.000000 - 0.000000",
"Step : 0.010000",
"Channel_info_end",
"Channel_info_start",
"Channel : Al",
"Points : 0",
"Range : 0.000000 - 0.000000",
"Step : 0.010000",
"Channel_info_end",
"Channel_info_start",
"Channel : Si",
"Points : 0",
"Range : 0.000000 - 0.000000",
"Step : 0.010000",
"Channel_info_end",
"Channel_info_start",
"Channel : P ",
"Points : 0",
"Range : 0.000000 - 0.000000",
"Step : 0.010000",
"Channel_info_end",
"Channel_info_start",
"Channel : S ",
"Points : 0",
"Range : 0.000000 - 0.000000",
"Step : 0.010000",
"Channel_info_end",
"Channel_info_start",
"Channel : Cl",
"Points : 0",
"Range : 0.000000 - 0.000000",
"Step : 0.010000",
"Channel_info_end",
"Channel_info_start",
"Channel : K ",
"Points : 0",
"Range : 0.000000 - 0.000000",
"Step : 0.010000",
"Channel_info_end",
"Channel_info_start",
"Channel : Ca",
"Points : 0",
"Range : 0.000000 - 0.000000",
"Step : 0.010000",
"Channel_info_end",
"Channel_info_start",
"Channel : Ti",
"Points : 0",
"Range : 0.000000 - 0.000000",
"Step : 0.010000",
"Channel_info_end",
"Channel_info_start",
"Channel : V ",
"Points : 0",
"Range : 0.000000 - 0.000000",
"Step : 0.010000",
"Channel_info_end",
"Channel_info_start",
"Channel : Cr",
"Points : 0",
"Range : 0.000000 - 0.000000",
"Step : 0.010000",
"Channel_info_end",
"Channel_info_start",
"Channel : Mn",
"Points : 0",
"Range : 0.000000 - 0.000000",
"Step : 0.010000",
"Channel_info_end",
"Channel_info_start",
"Channel : Fe",
"Points : 0",
"Range : 0.000000 - 0.000000",
"Step : 0.010000",
"Channel_info_end",
"Channel_info_start",
"Channel : Cu",
"Points : 0",
"Range : 0.000000 - 0.000000",
"Step : 0.010000",
"Channel_info_end",
"Channel_info_start",
"Channel : Zn",
"Points : 0",
"Range : 0.000000 - 0.000000",
"Step : 0.010000",
"Channel_info_end",
"Channel_info_start",
"Channel : Sr",
"Points : 0",
"Range : 0.000000 - 0.000000",
"Step : 0.010000",
"Channel_info_end",
"Channel_info_start",
"Channel : Pb",
"Points : 0",
"Range : 0.000000 - 0.000000",
"Step : 0.010000",
"Channel_info_end",
"",
"Qualitative Result",
"--------------------------------------------------------------------------------",
"Element :  P , Ba, Ca, Pr, Ru",
"",
"Peak List",
"--------------------------------------------------------------------------------",
"Channel               Line        keV     Net Int.(cps/uA)",
"--------------------------------------------------------------------------------",
"Na                    P Ka         1.99     0.021",
"                      BaLaESC      2.71     0.024",
"                      CaKa         3.70     0.286",
"                      BaLL         3.96     0.151",
"                      BaLa         4.47     3.330",
"                      BaLb1        4.84     2.137",
"                      BaLb2        5.17     0.515",
"                      BaLg1        5.52     0.200",
"                      PrLb1        5.52     0.079",
"                      BaLg2        5.80     0.142",
"                      ----        19.12     0.126",
"                      RuKa        19.36     0.088",
"                      ----        19.88     0.028",
"--------------------------------------------------------------------------------",
"",
"Quantitative Result",
"--------------------------------------------------------------------------------",
"Analyte               Result             Std.Dev. Proc.-Calc. Line Intensity(cps/uA)",
"--------------------------------------------------------------------------------",
"====[No. 1 Layer]====< Layer1               >===============================",
"Layer1                   0.000 ug/cm2    -------- Flux       -------- --------",