File: inputs/edxCalibration/edx_raw/2010/junho/BaF2 31514.20100626145838.csv
"Sample    : BaF2 31514",
"Operator  : thiago",
"Comment  : cubatao-g-policarbonato",
"Group     : kerr2007ag180cal_lt",
"Date       : 2010-06-26 14:54:24",
"",
"Mesurement Condition",
"------------------------------------------------------------------------------------",
"Instrument : 700HS2   Atmosphere : Vac.   Collimator : 10(mm)   Spin : No",
"------------------------------------------------------------------------------------",
"Analyte               TG kV   uA      FI Acq.(keV)  Anal.(keV)  Time(sec)     DT(%)",
"------------------------------------------------------------------------------------",
"Na                    Rh 50  393-Auto Al  0 - 20    0.8 - 1.2   Live -  179   16",
"",
"<Profile>",
"Channel_info_start",
"Channel : Na",
"Points : 2048",
"Range : 0.000000 - 20.48",
"Step : 0.010000",
"Channel_info_end",
"0",
"0",
"0",
"0",
"0",
"31",
"37",
"41",
"31",
"36",
"39",
"54",
"46",
"42",
"49",
"78",
"42",
"32",
"37",
"41",
"33",
"38",
"41",
"46",
"33",
"77",
"47",
"59",
"91",
"127",
"54",
"53",
"47",
"43",
"28",
"49",
"47",
"48",
"110",
"173",
"78",
"50",
"46",
"62",
"114",
"81",
"49",
"37",
"59",
"65",
"71",
"256",
"1029",
"1420",
"519",
"263",
"647",
"857",
"443",
"222",
"198",
"377",
"1782",
"10304",
"15920",
"6349",
"753",
"736",
"4808",
"10084",
"7082",
"2810",
"1072",
"2057",
"2446",
"1075",
"279",
"259",
"759",
"1332",
"922",
"405",
"567",
"792",
"472",
"263",
"209",
"155",
"123",
"129",
"137",
"184",
"160",
"174",
"139",
"171",
"156",
"126",
"124",
"107",
"139",
"132",
"149",
"173",
"151",
"173",
"183",
"170",
"174",
"153",
"167",
"175",
"144",
"221",
"214",
"259",
"228",
"196",
"146",
"153",
"158",
"183",
"192",
"212",
"210",
"162",
"165",
"201",
"216",
"172",
"163",
"192",
"174",
"185",
"225",
"194",
"194",
"201",
"199",
"165",
"151",
"150",
"155",
"171",
"156",
"151",
"137",
"144",
"173",
"169",
"169",
"190",
"160",
"132",
"168",
"174",
"133",
"150",
"158",
"173",
"160",
"168",
"150",
"161",
"142",
"170",
"149",
"164",
"158",
"140",
"133",
"169",
"116",
"130",
"136",
"134",
"152",
"133",
"130",
"146",
"130",
"152",
"112",
"139",
"125",
"136",
"123",
"141",
"90",
"139",
"132",
"123",
"124",
"110",
"106",
"111",
"125",
"124",
"139",
"128",
"157",
"127",
"121",
"136",
"144",
"118",
"102",
"95",
"114",
"110",
"96",
"102",
"122",
"89",
"95",
"108",
"103",
"95",
"89",
"115",
"113",
"81",
"82",
"103",
"94",
"89",
"107",
"112",
"99",
"114",
"84",
"102",
"91",
"82",
"96",
"110",
"90",
"92",
"88",
"105",
"94",
"102",
"92",
"104",
"98",
"92",
"83",
"111",
"68",
"85",
"85",
"72",
"108",
"87",
"80",
"91",
"96",
"106",
"93",
"94",
"101",
"111",
"95",
"108",
"150",
"135",
"134",
"173",
"183",
"230",
"275",
"426",
"461",
"584",
"536",
"556",
"510",
"434",
"334",
"285",
"210",
"169",
"153",
"162",
"161",
"264",
"358",
"389",
"346",
"233",
"140",
"83",
"91",
"56876",
"Channel_info_start",
"Channel : Mg",
"Points : 0",
"Range : 0.000000 - 0.000000",
"Step : 0.010000",
"Channel_info_end",
"Channel_info_start",
"Channel : Al",
"Points : 0",
"Range : 0.000000 - 0.000000",
"Step : 0.010000",
"Channel_info_end",
"Channel_info_start",
"Channel : Si",
"Points : 0",
"Range : 0.000000 - 0.000000",
"Step : 0.010000",
"Channel_info_end",
"Channel_info_start",
"Channel : P ",
"Points : 0",
"Range : 0.000000 - 0.000000",
"Step : 0.010000",
"Channel_info_end",
"Channel_info_start",
"Channel : S ",
"Points : 0",
"Range : 0.000000 - 0.000000",
"Step : 0.010000",
"Channel_info_end",
"Channel_info_start",
"Channel : Cl",
"Points : 0",
"Range : 0.000000 - 0.000000",
"Step : 0.010000",
"Channel_info_end",
"Channel_info_start",
"Channel : K ",
"Points : 0",
"Range : 0.000000 - 0.000000",
"Step : 0.010000",
"Channel_info_end",
"Channel_info_start",
"Channel : Ca",
"Points : 0",
"Range : 0.000000 - 0.000000",
"Step : 0.010000",
"Channel_info_end",
"Channel_info_start",
"Channel : Ti",
"Points : 0",
"Range : 0.000000 - 0.000000",
"Step : 0.010000",
"Channel_info_end",
"Channel_info_start",
"Channel : V ",
"Points : 0",
"Range : 0.000000 - 0.000000",
"Step : 0.010000",
"Channel_info_end",
"Channel_info_start",
"Channel : Cr",
"Points : 0",
"Range : 0.000000 - 0.000000",
"Step : 0.010000",
"Channel_info_end",
"Channel_info_start",
"Channel : Mn",
"Points : 0",
"Range : 0.000000 - 0.000000",
"Step : 0.010000",
"Channel_info_end",
"Channel_info_start",
"Channel : Fe",
"Points : 0",
"Range : 0.000000 - 0.000000",
"Step : 0.010000",
"Channel_info_end",
"Channel_info_start",
"Channel : Cu",
"Points : 0",
"Range : 0.000000 - 0.000000",
"Step : 0.010000",
"Channel_info_end",
"Channel_info_start",
"Channel : Zn",
"Points : 0",
"Range : 0.000000 - 0.000000",
"Step : 0.010000",
"Channel_info_end",
"Channel_info_start",
"Channel : Sr",
"Points : 0",
"Range : 0.000000 - 0.000000",
"Step : 0.010000",
"Channel_info_end",
"Channel_info_start",
"Channel : Pb",
"Points : 0",
"Range : 0.000000 - 0.000000",
"Step : 0.010000",
"Channel_info_end",
"",
"Qualitative Result",
"--------------------------------------------------------------------------------",
"Element :  P , Ba, Ca, Te, Pr, Ru",
"",
"Peak List",
"--------------------------------------------------------------------------------",
"Channel               Line        keV     Net Int.(cps/uA)",
"--------------------------------------------------------------------------------",
"Na                    P Ka         2.00     0.017",
"                      BaLaESC      2.72     0.023",
"                      BaLb1ESC     3.07     0.012",
"                      CaKa         3.69     0.279",
"                      BaLL         3.96     0.098",
"                      TeLb1        3.96     0.042",
"                      BaLa         4.47     3.261",
"                      BaLb1        4.84     2.091",
"                      BaLb2        5.16     0.513",
"                      BaLg1        5.54     0.196",
"                      PrLb1        5.54     0.055",
"                      BaLg2        5.80     0.140",
"                      RuKa        19.24     0.127",
"                      ----        19.53     0.042",
"                      ----        20.04     0.083",
"--------------------------------------------------------------------------------",
"",
"Quantitative Result",
"--------------------------------------------------------------------------------",
"Analyte               Result             Std.Dev. Proc.-Calc. Line Intensity(cps/uA)",
"--------------------------------------------------------------------------------",
"====[No. 1 Layer]====< Layer1               >===============================",
"Layer1                   0.000 ug/cm2    -------- Flux       -------- --------",