File: inputs/edxCalibration/edx_raw/2010/junho/BaF2 31515.20100626150250.csv
"Sample    : BaF2 31515",
"Operator  : thiago",
"Comment  : cubatao-g-policarbonato",
"Group     : kerr2007ag180cal_lt",
"Date       : 2010-06-26 14:58:37",
"",
"Mesurement Condition",
"------------------------------------------------------------------------------------",
"Instrument : 700HS2   Atmosphere : Vac.   Collimator : 10(mm)   Spin : No",
"------------------------------------------------------------------------------------",
"Analyte               TG kV   uA      FI Acq.(keV)  Anal.(keV)  Time(sec)     DT(%)",
"------------------------------------------------------------------------------------",
"Na                    Rh 50  393-Auto Al  0 - 20    0.8 - 1.2   Live -  179   15",
"",
"<Profile>",
"Channel_info_start",
"Channel : Na",
"Points : 2048",
"Range : 0.000000 - 20.48",
"Step : 0.010000",
"Channel_info_end",
"0",
"0",
"0",
"0",
"0",
"29",
"37",
"37",
"32",
"35",
"34",
"50",
"64",
"45",
"53",
"60",
"45",
"53",
"36",
"48",
"31",
"33",
"36",
"35",
"40",
"53",
"48",
"59",
"108",
"118",
"56",
"25",
"41",
"32",
"28",
"44",
"29",
"47",
"111",
"178",
"81",
"52",
"39",
"60",
"94",
"87",
"62",
"46",
"45",
"65",
"91",
"210",
"1001",
"1468",
"518",
"270",
"653",
"812",
"379",
"167",
"180",
"359",
"1727",
"9552",
"14863",
"5956",
"786",
"744",
"4234",
"9397",
"6512",
"2616",
"1034",
"1969",
"2305",
"1028",
"239",
"249",
"774",
"1392",
"794",
"329",
"559",
"737",
"458",
"282",
"181",
"132",
"133",
"167",
"144",
"171",
"186",
"176",
"129",
"164",
"138",
"122",
"129",
"134",
"129",
"130",
"156",
"144",
"178",
"163",
"156",
"181",
"154",
"163",
"158",
"159",
"183",
"175",
"208",
"230",
"228",
"200",
"180",
"172",
"151",
"158",
"183",
"219",
"195",
"199",
"162",
"179",
"155",
"192",
"159",
"187",
"195",
"239",
"188",
"200",
"193",
"167",
"187",
"145",
"148",
"169",
"171",
"146",
"158",
"129",
"145",
"147",
"160",
"148",
"150",
"140",
"163",
"171",
"130",
"190",
"151",
"164",
"130",
"169",
"138",
"159",
"164",
"150",
"142",
"139",
"155",
"130",
"164",
"136",
"139",
"127",
"151",
"128",
"122",
"147",
"118",
"120",
"123",
"126",
"118",
"128",
"132",
"139",
"116",
"129",
"136",
"148",
"132",
"112",
"135",
"126",
"136",
"109",
"128",
"112",
"121",
"140",
"124",
"127",
"132",
"139",
"120",
"156",
"119",
"129",
"134",
"132",
"91",
"118",
"117",
"102",
"96",
"97",
"92",
"91",
"102",
"119",
"100",
"95",
"85",
"96",
"93",
"111",
"109",
"96",
"97",
"85",
"94",
"107",
"81",
"100",
"77",
"88",
"90",
"104",
"103",
"90",
"83",
"91",
"80",
"70",
"69",
"82",
"81",
"106",
"98",
"86",
"77",
"87",
"86",
"96",
"85",
"88",
"79",
"94",
"90",
"86",
"79",
"103",
"79",
"93",
"104",
"105",
"111",
"133",
"134",
"180",
"201",
"255",
"305",
"408",
"533",
"539",
"588",
"542",
"509",
"455",
"332",
"286",
"216",
"191",
"168",
"143",
"200",
"250",
"334",
"380",
"368",
"225",
"135",
"107",
"88",
"56336",
"Channel_info_start",
"Channel : Mg",
"Points : 0",
"Range : 0.000000 - 0.000000",
"Step : 0.010000",
"Channel_info_end",
"Channel_info_start",
"Channel : Al",
"Points : 0",
"Range : 0.000000 - 0.000000",
"Step : 0.010000",
"Channel_info_end",
"Channel_info_start",
"Channel : Si",
"Points : 0",
"Range : 0.000000 - 0.000000",
"Step : 0.010000",
"Channel_info_end",
"Channel_info_start",
"Channel : P ",
"Points : 0",
"Range : 0.000000 - 0.000000",
"Step : 0.010000",
"Channel_info_end",
"Channel_info_start",
"Channel : S ",
"Points : 0",
"Range : 0.000000 - 0.000000",
"Step : 0.010000",
"Channel_info_end",
"Channel_info_start",
"Channel : Cl",
"Points : 0",
"Range : 0.000000 - 0.000000",
"Step : 0.010000",
"Channel_info_end",
"Channel_info_start",
"Channel : K ",
"Points : 0",
"Range : 0.000000 - 0.000000",
"Step : 0.010000",
"Channel_info_end",
"Channel_info_start",
"Channel : Ca",
"Points : 0",
"Range : 0.000000 - 0.000000",
"Step : 0.010000",
"Channel_info_end",
"Channel_info_start",
"Channel : Ti",
"Points : 0",
"Range : 0.000000 - 0.000000",
"Step : 0.010000",
"Channel_info_end",
"Channel_info_start",
"Channel : V ",
"Points : 0",
"Range : 0.000000 - 0.000000",
"Step : 0.010000",
"Channel_info_end",
"Channel_info_start",
"Channel : Cr",
"Points : 0",
"Range : 0.000000 - 0.000000",
"Step : 0.010000",
"Channel_info_end",
"Channel_info_start",
"Channel : Mn",
"Points : 0",
"Range : 0.000000 - 0.000000",
"Step : 0.010000",
"Channel_info_end",
"Channel_info_start",
"Channel : Fe",
"Points : 0",
"Range : 0.000000 - 0.000000",
"Step : 0.010000",
"Channel_info_end",
"Channel_info_start",
"Channel : Cu",
"Points : 0",
"Range : 0.000000 - 0.000000",
"Step : 0.010000",
"Channel_info_end",
"Channel_info_start",
"Channel : Zn",
"Points : 0",
"Range : 0.000000 - 0.000000",
"Step : 0.010000",
"Channel_info_end",
"Channel_info_start",
"Channel : Sr",
"Points : 0",
"Range : 0.000000 - 0.000000",
"Step : 0.010000",
"Channel_info_end",
"Channel_info_start",
"Channel : Pb",
"Points : 0",
"Range : 0.000000 - 0.000000",
"Step : 0.010000",
"Channel_info_end",
"",
"Qualitative Result",
"--------------------------------------------------------------------------------",
"Element :  Na, P , Ba, Ca, Te, Pr, Rh",
"",
"Peak List",
"--------------------------------------------------------------------------------",
"Channel               Line        keV     Net Int.(cps/uA)",
"--------------------------------------------------------------------------------",
"Na                    NaKa         1.00     0.005",
"                      P Ka         2.01     0.021",
"                      BaLaESC      2.72     0.024",
"                      BaLb1ESC     3.11     0.012",
"                      CaKa         3.69     0.284",
"                      BaLL         3.97     0.091",
"                      TeLb1        3.97     0.050",
"                      BaLa         4.48     3.037",
"                      BaLb1        4.84     1.914",
"                      BaLb2        5.16     0.465",
"                      BaLg1        5.52     0.182",
"                      PrLb1        5.52     0.066",
"                      BaLg2        5.78     0.129",
"                      RhKaC       19.21     0.127",
"                      ----        19.49     0.047",
"                      RhKa        20.08     0.090",
"--------------------------------------------------------------------------------",
"",
"Quantitative Result",
"--------------------------------------------------------------------------------",
"Analyte               Result             Std.Dev. Proc.-Calc. Line Intensity(cps/uA)",
"--------------------------------------------------------------------------------",
"====[No. 1 Layer]====< Layer1               >===============================",
"Layer1                   4.597 ug/cm2    -------- Flux       -------- --------",
"Na                       4.597 ug/cm2    -------- ********** -------- --------",