File: inputs/edxCalibration/edx_raw/2010/junho/Bi 15773.20100611040738.csv
"Sample    : Bi 15773",
"Operator  : Luís",
"Comment  : cubatao-g-policarbonato",
"Group     : kerr2007ag180cal_lt",
"Date       : 2010-06-11 04:03:37",
"",
"Mesurement Condition",
"------------------------------------------------------------------------------------",
"Instrument : 700HS2   Atmosphere : Vac.   Collimator : 10(mm)   Spin : No",
"------------------------------------------------------------------------------------",
"Analyte               TG kV   uA      FI Acq.(keV)  Anal.(keV)  Time(sec)     DT(%)",
"------------------------------------------------------------------------------------",
"Na                    Rh 50  168-Auto Al  0 - 20    0.8 - 1.2   Live -  179   14",
"",
"<Profile>",
"Channel_info_start",
"Channel : Na",
"Points : 2048",
"Range : 0.000000 - 20.48",
"Step : 0.010000",
"Channel_info_end",
"0",
"0",
"0",
"0",
"0",
"21",
"24",
"27",
"25",
"52",
"92",
"79",
"60",
"19",
"44",
"28",
"28",
"31",
"24",
"22",
"31",
"32",
"16",
"30",
"54",
"38",
"111",
"322",
"213",
"159",
"136",
"184",
"255",
"431",
"2143",
"4068",
"3210",
"1563",
"321",
"445",
"262",
"77",
"62",
"87",
"53",
"113",
"146",
"103",
"37",
"26",
"23",
"103",
"428",
"578",
"187",
"67",
"68",
"118",
"76",
"43",
"23",
"25",
"30",
"30",
"43",
"36",
"38",
"41",
"36",
"36",
"27",
"38",
"40",
"50",
"35",
"48",
"30",
"41",
"46",
"42",
"65",
"92",
"64",
"77",
"60",
"57",
"49",
"68",
"80",
"73",
"66",
"86",
"78",
"73",
"79",
"74",
"72",
"81",
"64",
"68",
"68",
"83",
"90",
"71",
"86",
"85",
"82",
"84",
"87",
"105",
"92",
"84",
"100",
"86",
"93",
"128",
"86",
"91",
"78",
"91",
"67",
"90",
"113",
"139",
"124",
"109",
"86",
"119",
"106",
"116",
"82",
"113",
"187",
"328",
"623",
"635",
"336",
"153",
"117",
"98",
"108",
"97",
"79",
"76",
"79",
"104",
"105",
"101",
"90",
"107",
"153",
"479",
"1611",
"4664",
"8371",
"9093",
"5286",
"1735",
"397",
"177",
"116",
"108",
"108",
"96",
"97",
"149",
"195",
"239",
"205",
"141",
"72",
"80",
"81",
"84",
"79",
"108",
"137",
"179",
"267",
"316",
"412",
"493",
"593",
"1304",
"3188",
"5874",
"5779",
"4171",
"1965",
"864",
"511",
"420",
"331",
"190",
"121",
"93",
"84",
"77",
"64",
"74",
"87",
"57",
"54",
"54",
"68",
"60",
"62",
"68",
"68",
"95",
"93",
"90",
"80",
"91",
"112",
"297",
"599",
"920",
"873",
"629",
"313",
"252",
"255",
"325",
"324",
"241",
"149",
"86",
"66",
"56",
"71",
"64",
"78",
"82",
"58",
"59",
"44",
"39",
"43",
"39",
"38",
"40",
"49",
"43",
"50",
"49",
"39",
"54",
"41",
"35",
"53",
"44",
"44",
"49",
"35",
"48",
"56",
"50",
"38",
"50",
"49",
"37",
"49",
"59",
"60",
"66",
"59",
"91",
"96",
"112",
"132",
"180",
"229",
"217",
"260",
"267",
"207",
"172",
"139",
"114",
"92",
"71",
"63",
"80",
"107",
"170",
"218",
"233",
"234",
"130",
"67",
"54",
"42",
"20951",
"Channel_info_start",
"Channel : Mg",
"Points : 0",
"Range : 0.000000 - 0.000000",
"Step : 0.010000",
"Channel_info_end",
"Channel_info_start",
"Channel : Al",
"Points : 0",
"Range : 0.000000 - 0.000000",
"Step : 0.010000",
"Channel_info_end",
"Channel_info_start",
"Channel : Si",
"Points : 0",
"Range : 0.000000 - 0.000000",
"Step : 0.010000",
"Channel_info_end",
"Channel_info_start",
"Channel : P ",
"Points : 0",
"Range : 0.000000 - 0.000000",
"Step : 0.010000",
"Channel_info_end",
"Channel_info_start",
"Channel : S ",
"Points : 0",
"Range : 0.000000 - 0.000000",
"Step : 0.010000",
"Channel_info_end",
"Channel_info_start",
"Channel : Cl",
"Points : 0",
"Range : 0.000000 - 0.000000",
"Step : 0.010000",
"Channel_info_end",
"Channel_info_start",
"Channel : K ",
"Points : 0",
"Range : 0.000000 - 0.000000",
"Step : 0.010000",
"Channel_info_end",
"Channel_info_start",
"Channel : Ca",
"Points : 0",
"Range : 0.000000 - 0.000000",
"Step : 0.010000",
"Channel_info_end",
"Channel_info_start",
"Channel : Ti",
"Points : 0",
"Range : 0.000000 - 0.000000",
"Step : 0.010000",
"Channel_info_end",
"Channel_info_start",
"Channel : V ",
"Points : 0",
"Range : 0.000000 - 0.000000",
"Step : 0.010000",
"Channel_info_end",
"Channel_info_start",
"Channel : Cr",
"Points : 0",
"Range : 0.000000 - 0.000000",
"Step : 0.010000",
"Channel_info_end",
"Channel_info_start",
"Channel : Mn",
"Points : 0",
"Range : 0.000000 - 0.000000",
"Step : 0.010000",
"Channel_info_end",
"Channel_info_start",
"Channel : Fe",
"Points : 0",
"Range : 0.000000 - 0.000000",
"Step : 0.010000",
"Channel_info_end",
"Channel_info_start",
"Channel : Cu",
"Points : 0",
"Range : 0.000000 - 0.000000",
"Step : 0.010000",
"Channel_info_end",
"Channel_info_start",
"Channel : Zn",
"Points : 0",
"Range : 0.000000 - 0.000000",
"Step : 0.010000",
"Channel_info_end",
"Channel_info_start",
"Channel : Sr",
"Points : 0",
"Range : 0.000000 - 0.000000",
"Step : 0.010000",
"Channel_info_end",
"Channel_info_start",
"Channel : Pb",
"Points : 0",
"Range : 0.000000 - 0.000000",
"Step : 0.010000",
"Channel_info_end",
"",
"Qualitative Result",
"--------------------------------------------------------------------------------",
"Element :  Bi, Ru, Ca, Rb",
"",
"Peak List",
"--------------------------------------------------------------------------------",
"Channel               Line        keV     Net Int.(cps/uA)",
"--------------------------------------------------------------------------------",
"Na                    ----         0.68     0.020",
"                      ----         0.80     0.016",
"                      ----         1.90     0.089",
"                      ----         2.20     0.044",
"                      BiMa         2.44     1.649",
"                      RuLb1        2.74     0.146",
"                      ----         3.23     0.052",
"                      CaKa         3.68     0.292",
"                      CaKb         3.99     0.042",
"                      BiLL         9.43     0.329",
"                      BiLa        10.81     5.834",
"                      ----        11.73     0.079",
"                      BiLb4       12.64     0.116",
"                      BiLb1       12.99     3.844",
"                      RbKa        13.40     0.109",
"                      BiLg1       15.22     0.600",
"                      BiLg2       15.68     0.165",
"                      RuKa        19.16     0.152",
"                      ----        19.44     0.069",
"                      ----        20.01     0.133",
"--------------------------------------------------------------------------------",
"",
"Quantitative Result",
"--------------------------------------------------------------------------------",
"Analyte               Result             Std.Dev. Proc.-Calc. Line Intensity(cps/uA)",
"--------------------------------------------------------------------------------",
"====[No. 1 Layer]====< Layer1               >===============================",
"Layer1                   0.000 ug/cm2    -------- Flux       -------- --------",