File: inputs/edxCalibration/edx_raw/2010/junho/Bi 31520.20100526014617.csv
"Sample    : Bi 31520",
"Operator  : luisf",
"Comment  : cubatao-g-policarbonato",
"Group     : kerr2007ag180cal_lt",
"Date       : 2010-05-26 01:42:12",
"",
"Mesurement Condition",
"------------------------------------------------------------------------------------",
"Instrument : 700HS2   Atmosphere : Vac.   Collimator : 10(mm)   Spin : No",
"------------------------------------------------------------------------------------",
"Analyte               TG kV   uA      FI Acq.(keV)  Anal.(keV)  Time(sec)     DT(%)",
"------------------------------------------------------------------------------------",
"Na                    Rh 50  187-Auto Al  0 - 20    0.8 - 1.2   Live -  180   16",
"",
"<Profile>",
"Channel_info_start",
"Channel : Na",
"Points : 2048",
"Range : 0.000000 - 20.48",
"Step : 0.010000",
"Channel_info_end",
"0",
"0",
"0",
"0",
"0",
"32",
"25",
"37",
"27",
"79",
"114",
"102",
"52",
"20",
"35",
"37",
"22",
"46",
"40",
"29",
"38",
"34",
"33",
"34",
"45",
"58",
"127",
"335",
"254",
"177",
"133",
"207",
"288",
"451",
"2486",
"4839",
"3787",
"1917",
"431",
"487",
"310",
"117",
"68",
"93",
"83",
"153",
"222",
"126",
"54",
"21",
"29",
"116",
"463",
"736",
"216",
"72",
"80",
"123",
"94",
"25",
"17",
"24",
"31",
"35",
"48",
"36",
"46",
"48",
"32",
"38",
"40",
"45",
"33",
"38",
"43",
"48",
"38",
"52",
"49",
"76",
"88",
"102",
"128",
"120",
"76",
"61",
"63",
"64",
"71",
"72",
"75",
"79",
"76",
"92",
"74",
"76",
"91",
"83",
"94",
"79",
"99",
"86",
"84",
"83",
"79",
"88",
"90",
"111",
"114",
"115",
"99",
"98",
"79",
"93",
"106",
"121",
"108",
"86",
"92",
"106",
"104",
"123",
"123",
"166",
"154",
"126",
"145",
"132",
"142",
"150",
"116",
"142",
"175",
"378",
"657",
"710",
"439",
"199",
"136",
"104",
"105",
"110",
"112",
"107",
"114",
"100",
"112",
"112",
"119",
"143",
"183",
"522",
"1637",
"5194",
"9340",
"10903",
"6449",
"2255",
"476",
"195",
"147",
"120",
"109",
"109",
"114",
"162",
"198",
"256",
"234",
"145",
"111",
"105",
"93",
"74",
"97",
"121",
"132",
"219",
"271",
"354",
"462",
"578",
"603",
"1353",
"3430",
"6437",
"6963",
"5176",
"2384",
"1122",
"628",
"504",
"399",
"233",
"140",
"110",
"104",
"91",
"93",
"85",
"79",
"70",
"61",
"70",
"67",
"70",
"70",
"78",
"84",
"71",
"100",
"99",
"97",
"103",
"115",
"330",
"619",
"1085",
"1011",
"701",
"380",
"287",
"293",
"382",
"392",
"294",
"155",
"85",
"68",
"71",
"62",
"96",
"81",
"107",
"81",
"50",
"49",
"38",
"52",
"48",
"54",
"38",
"45",
"56",
"43",
"44",
"47",
"47",
"45",
"54",
"38",
"66",
"57",
"49",
"60",
"50",
"67",
"51",
"62",
"56",
"61",
"56",
"56",
"43",
"71",
"74",
"86",
"78",
"111",
"128",
"163",
"193",
"252",
"238",
"250",
"302",
"263",
"175",
"173",
"144",
"111",
"78",
"84",
"82",
"119",
"202",
"209",
"284",
"259",
"181",
"95",
"60",
"50",
"23601",
"Channel_info_start",
"Channel : Mg",
"Points : 0",
"Range : 0.000000 - 0.000000",
"Step : 0.010000",
"Channel_info_end",
"Channel_info_start",
"Channel : Al",
"Points : 0",
"Range : 0.000000 - 0.000000",
"Step : 0.010000",
"Channel_info_end",
"Channel_info_start",
"Channel : Si",
"Points : 0",
"Range : 0.000000 - 0.000000",
"Step : 0.010000",
"Channel_info_end",
"Channel_info_start",
"Channel : P ",
"Points : 0",
"Range : 0.000000 - 0.000000",
"Step : 0.010000",
"Channel_info_end",
"Channel_info_start",
"Channel : S ",
"Points : 0",
"Range : 0.000000 - 0.000000",
"Step : 0.010000",
"Channel_info_end",
"Channel_info_start",
"Channel : Cl",
"Points : 0",
"Range : 0.000000 - 0.000000",
"Step : 0.010000",
"Channel_info_end",
"Channel_info_start",
"Channel : K ",
"Points : 0",
"Range : 0.000000 - 0.000000",
"Step : 0.010000",
"Channel_info_end",
"Channel_info_start",
"Channel : Ca",
"Points : 0",
"Range : 0.000000 - 0.000000",
"Step : 0.010000",
"Channel_info_end",
"Channel_info_start",
"Channel : Ti",
"Points : 0",
"Range : 0.000000 - 0.000000",
"Step : 0.010000",
"Channel_info_end",
"Channel_info_start",
"Channel : V ",
"Points : 0",
"Range : 0.000000 - 0.000000",
"Step : 0.010000",
"Channel_info_end",
"Channel_info_start",
"Channel : Cr",
"Points : 0",
"Range : 0.000000 - 0.000000",
"Step : 0.010000",
"Channel_info_end",
"Channel_info_start",
"Channel : Mn",
"Points : 0",
"Range : 0.000000 - 0.000000",
"Step : 0.010000",
"Channel_info_end",
"Channel_info_start",
"Channel : Fe",
"Points : 0",
"Range : 0.000000 - 0.000000",
"Step : 0.010000",
"Channel_info_end",
"Channel_info_start",
"Channel : Cu",
"Points : 0",
"Range : 0.000000 - 0.000000",
"Step : 0.010000",
"Channel_info_end",
"Channel_info_start",
"Channel : Zn",
"Points : 0",
"Range : 0.000000 - 0.000000",
"Step : 0.010000",
"Channel_info_end",
"Channel_info_start",
"Channel : Sr",
"Points : 0",
"Range : 0.000000 - 0.000000",
"Step : 0.010000",
"Channel_info_end",
"Channel_info_start",
"Channel : Pb",
"Points : 0",
"Range : 0.000000 - 0.000000",
"Step : 0.010000",
"Channel_info_end",
"",
"Qualitative Result",
"--------------------------------------------------------------------------------",
"Element :  Bi, Ru, Ca",
"",
"Peak List",
"--------------------------------------------------------------------------------",
"Channel               Line        keV     Net Int.(cps/uA)",
"--------------------------------------------------------------------------------",
"Na                    ----         0.69     0.024",
"                      ----         0.78     0.021",
"                      ----         1.90     0.089",
"                      ----         2.21     0.047",
"                      BiMa         2.44     1.719",
"                      RuLb1        2.75     0.159",
"                      ----         3.22     0.065",
"                      CaKa         3.69     0.281",
"                      CaKb         4.01     0.038",
"                      BiLL         9.42     0.358",
"                      BiLa        10.84     6.048",
"                      ----        11.73     0.080",
"                      BiLb4       12.65     0.112",
"                      BiLb1       13.00     4.074",
"                      ----        13.44     0.098",
"                      BiLg1       15.24     0.613",
"                      BiLg2       15.64     0.165",
"                      RuKa        19.16     0.130",
"                      ----        19.45     0.068",
"                      ----        19.98     0.099",
"--------------------------------------------------------------------------------",
"",
"Quantitative Result",
"--------------------------------------------------------------------------------",
"Analyte               Result             Std.Dev. Proc.-Calc. Line Intensity(cps/uA)",
"--------------------------------------------------------------------------------",
"====[No. 1 Layer]====< Layer1               >===============================",
"Layer1                   0.000 ug/cm2    -------- Flux       -------- --------",