File: inputs/edxCalibration/edx_raw/2010/junho/Bi 31520.20100626153536.csv
"Sample    : Bi 31520",
"Operator  : luis",
"Comment  : cubatao-g-policarbonato",
"Group     : kerr2007ag180cal_lt",
"Date       : 2010-06-26 15:31:30",
"",
"Mesurement Condition",
"------------------------------------------------------------------------------------",
"Instrument : 700HS2   Atmosphere : Vac.   Collimator : 10(mm)   Spin : No",
"------------------------------------------------------------------------------------",
"Analyte               TG kV   uA      FI Acq.(keV)  Anal.(keV)  Time(sec)     DT(%)",
"------------------------------------------------------------------------------------",
"Na                    Rh 50  187-Auto Al  0 - 20    0.8 - 1.2   Live -  179   16",
"",
"<Profile>",
"Channel_info_start",
"Channel : Na",
"Points : 2048",
"Range : 0.000000 - 20.48",
"Step : 0.010000",
"Channel_info_end",
"0",
"0",
"0",
"0",
"1",
"28",
"37",
"29",
"32",
"58",
"106",
"93",
"57",
"37",
"36",
"29",
"38",
"37",
"38",
"23",
"22",
"33",
"41",
"44",
"50",
"72",
"125",
"338",
"229",
"151",
"132",
"185",
"272",
"443",
"2334",
"4639",
"3741",
"1861",
"405",
"480",
"332",
"85",
"83",
"106",
"75",
"154",
"213",
"145",
"50",
"32",
"27",
"91",
"432",
"709",
"224",
"82",
"62",
"120",
"83",
"33",
"21",
"23",
"23",
"44",
"49",
"44",
"44",
"45",
"47",
"39",
"34",
"38",
"26",
"52",
"24",
"40",
"44",
"43",
"64",
"57",
"79",
"111",
"131",
"89",
"75",
"68",
"56",
"68",
"80",
"69",
"68",
"60",
"72",
"63",
"82",
"77",
"64",
"82",
"101",
"98",
"97",
"87",
"61",
"72",
"101",
"87",
"83",
"108",
"106",
"109",
"94",
"96",
"97",
"86",
"119",
"134",
"91",
"87",
"108",
"123",
"112",
"85",
"135",
"157",
"149",
"128",
"124",
"133",
"121",
"117",
"124",
"136",
"157",
"372",
"684",
"727",
"452",
"226",
"135",
"125",
"99",
"83",
"89",
"105",
"96",
"98",
"107",
"115",
"96",
"117",
"152",
"424",
"1507",
"4687",
"8977",
"10639",
"6827",
"2375",
"600",
"193",
"155",
"128",
"128",
"101",
"119",
"135",
"189",
"242",
"204",
"154",
"113",
"81",
"91",
"89",
"76",
"109",
"132",
"200",
"255",
"354",
"447",
"497",
"662",
"1254",
"3153",
"6161",
"6859",
"5456",
"2566",
"1124",
"606",
"474",
"407",
"246",
"140",
"103",
"81",
"103",
"92",
"79",
"70",
"71",
"59",
"71",
"62",
"71",
"74",
"70",
"80",
"95",
"100",
"96",
"96",
"92",
"120",
"278",
"573",
"948",
"1015",
"802",
"444",
"261",
"284",
"315",
"336",
"274",
"205",
"103",
"61",
"65",
"75",
"86",
"87",
"92",
"79",
"70",
"47",
"63",
"45",
"59",
"46",
"49",
"56",
"49",
"47",
"48",
"43",
"45",
"51",
"58",
"63",
"58",
"46",
"43",
"55",
"51",
"47",
"46",
"49",
"41",
"47",
"56",
"63",
"74",
"64",
"67",
"73",
"98",
"103",
"106",
"161",
"201",
"245",
"249",
"299",
"279",
"240",
"191",
"187",
"132",
"100",
"87",
"70",
"75",
"106",
"165",
"257",
"263",
"248",
"176",
"96",
"46",
"45",
"23410",
"Channel_info_start",
"Channel : Mg",
"Points : 0",
"Range : 0.000000 - 0.000000",
"Step : 0.010000",
"Channel_info_end",
"Channel_info_start",
"Channel : Al",
"Points : 0",
"Range : 0.000000 - 0.000000",
"Step : 0.010000",
"Channel_info_end",
"Channel_info_start",
"Channel : Si",
"Points : 0",
"Range : 0.000000 - 0.000000",
"Step : 0.010000",
"Channel_info_end",
"Channel_info_start",
"Channel : P ",
"Points : 0",
"Range : 0.000000 - 0.000000",
"Step : 0.010000",
"Channel_info_end",
"Channel_info_start",
"Channel : S ",
"Points : 0",
"Range : 0.000000 - 0.000000",
"Step : 0.010000",
"Channel_info_end",
"Channel_info_start",
"Channel : Cl",
"Points : 0",
"Range : 0.000000 - 0.000000",
"Step : 0.010000",
"Channel_info_end",
"Channel_info_start",
"Channel : K ",
"Points : 0",
"Range : 0.000000 - 0.000000",
"Step : 0.010000",
"Channel_info_end",
"Channel_info_start",
"Channel : Ca",
"Points : 0",
"Range : 0.000000 - 0.000000",
"Step : 0.010000",
"Channel_info_end",
"Channel_info_start",
"Channel : Ti",
"Points : 0",
"Range : 0.000000 - 0.000000",
"Step : 0.010000",
"Channel_info_end",
"Channel_info_start",
"Channel : V ",
"Points : 0",
"Range : 0.000000 - 0.000000",
"Step : 0.010000",
"Channel_info_end",
"Channel_info_start",
"Channel : Cr",
"Points : 0",
"Range : 0.000000 - 0.000000",
"Step : 0.010000",
"Channel_info_end",
"Channel_info_start",
"Channel : Mn",
"Points : 0",
"Range : 0.000000 - 0.000000",
"Step : 0.010000",
"Channel_info_end",
"Channel_info_start",
"Channel : Fe",
"Points : 0",
"Range : 0.000000 - 0.000000",
"Step : 0.010000",
"Channel_info_end",
"Channel_info_start",
"Channel : Cu",
"Points : 0",
"Range : 0.000000 - 0.000000",
"Step : 0.010000",
"Channel_info_end",
"Channel_info_start",
"Channel : Zn",
"Points : 0",
"Range : 0.000000 - 0.000000",
"Step : 0.010000",
"Channel_info_end",
"Channel_info_start",
"Channel : Sr",
"Points : 0",
"Range : 0.000000 - 0.000000",
"Step : 0.010000",
"Channel_info_end",
"Channel_info_start",
"Channel : Pb",
"Points : 0",
"Range : 0.000000 - 0.000000",
"Step : 0.010000",
"Channel_info_end",
"",
"Qualitative Result",
"--------------------------------------------------------------------------------",
"Element :  Bi, Ru, Ca",
"",
"Peak List",
"--------------------------------------------------------------------------------",
"Channel               Line        keV     Net Int.(cps/uA)",
"--------------------------------------------------------------------------------",
"Na                    ----         0.69     0.024",
"                      ----         0.79     0.019",
"                      ----         1.90     0.085",
"                      ----         2.21     0.045",
"                      BiMa         2.44     1.684",
"                      RuLb1        2.74     0.155",
"                      ----         3.22     0.065",
"                      CaKa         3.69     0.288",
"                      CaKb         4.03     0.038",
"                      ----         5.73     0.034",
"                      BiLL         9.42     0.363",
"                      BiLa        10.84     5.965",
"                      ----        11.72     0.095",
"                      BiLb4       12.64     0.096",
"                      BiLb1       13.01     4.042",
"                      ----        13.40     0.125",
"                      BiLg1       15.24     0.597",
"                      BiLg2       15.64     0.163",
"                      RuKa        19.17     0.146",
"                      ----        19.47     0.063",
"                      ----        19.95     0.074",
"--------------------------------------------------------------------------------",
"",
"Quantitative Result",
"--------------------------------------------------------------------------------",
"Analyte               Result             Std.Dev. Proc.-Calc. Line Intensity(cps/uA)",
"--------------------------------------------------------------------------------",
"====[No. 1 Layer]====< Layer1               >===============================",
"Layer1                   0.000 ug/cm2    -------- Flux       -------- --------",