File: inputs/edxCalibration/edx_raw/2010/junho/Bi 31520   .20100611040339.csv
"Sample    : Bi 31520   ",
"Operator  : Luís",
"Comment  : cubatao-g-policarbonato",
"Group     : kerr2007ag180cal_lt",
"Date       : 2010-06-11 03:59:32",
"",
"Mesurement Condition",
"------------------------------------------------------------------------------------",
"Instrument : 700HS2   Atmosphere : Vac.   Collimator : 10(mm)   Spin : No",
"------------------------------------------------------------------------------------",
"Analyte               TG kV   uA      FI Acq.(keV)  Anal.(keV)  Time(sec)     DT(%)",
"------------------------------------------------------------------------------------",
"Na                    Rh 50  187-Auto Al  0 - 20    0.8 - 1.2   Live -  180   16",
"",
"<Profile>",
"Channel_info_start",
"Channel : Na",
"Points : 2048",
"Range : 0.000000 - 20.48",
"Step : 0.010000",
"Channel_info_end",
"0",
"0",
"0",
"0",
"0",
"29",
"23",
"39",
"44",
"67",
"103",
"76",
"61",
"27",
"46",
"39",
"27",
"26",
"26",
"32",
"37",
"47",
"40",
"41",
"46",
"70",
"133",
"312",
"228",
"198",
"148",
"227",
"309",
"445",
"2482",
"4748",
"3665",
"1785",
"465",
"467",
"323",
"85",
"66",
"83",
"62",
"180",
"195",
"140",
"53",
"28",
"34",
"93",
"452",
"619",
"202",
"62",
"74",
"108",
"78",
"35",
"21",
"19",
"27",
"38",
"37",
"33",
"43",
"40",
"31",
"52",
"29",
"39",
"31",
"38",
"38",
"45",
"38",
"47",
"49",
"75",
"79",
"132",
"110",
"97",
"73",
"61",
"74",
"74",
"78",
"64",
"74",
"93",
"84",
"86",
"70",
"82",
"67",
"95",
"90",
"81",
"71",
"93",
"88",
"92",
"93",
"87",
"115",
"126",
"117",
"120",
"106",
"94",
"94",
"104",
"96",
"143",
"105",
"100",
"117",
"92",
"84",
"94",
"127",
"158",
"152",
"139",
"142",
"143",
"132",
"135",
"128",
"129",
"192",
"416",
"668",
"736",
"374",
"169",
"123",
"102",
"117",
"108",
"92",
"98",
"88",
"117",
"118",
"111",
"123",
"120",
"197",
"600",
"1827",
"5514",
"9584",
"10786",
"5922",
"2020",
"469",
"177",
"140",
"104",
"117",
"128",
"128",
"139",
"210",
"250",
"195",
"151",
"95",
"96",
"96",
"99",
"97",
"122",
"153",
"243",
"295",
"394",
"428",
"548",
"622",
"1526",
"3699",
"6612",
"6872",
"4794",
"2251",
"1051",
"590",
"516",
"357",
"219",
"156",
"107",
"93",
"92",
"87",
"75",
"60",
"68",
"55",
"70",
"83",
"60",
"70",
"83",
"85",
"92",
"92",
"107",
"118",
"55",
"129",
"334",
"703",
"1092",
"1017",
"746",
"422",
"284",
"277",
"407",
"336",
"284",
"141",
"99",
"70",
"64",
"55",
"109",
"98",
"103",
"82",
"56",
"49",
"60",
"70",
"55",
"48",
"59",
"35",
"55",
"51",
"46",
"45",
"49",
"58",
"55",
"49",
"46",
"28",
"49",
"50",
"51",
"49",
"52",
"41",
"45",
"60",
"64",
"47",
"48",
"62",
"55",
"71",
"85",
"122",
"160",
"202",
"222",
"252",
"282",
"276",
"271",
"262",
"210",
"163",
"120",
"92",
"76",
"83",
"102",
"116",
"209",
"214",
"261",
"209",
"162",
"92",
"51",
"59",
"23784",
"Channel_info_start",
"Channel : Mg",
"Points : 0",
"Range : 0.000000 - 0.000000",
"Step : 0.010000",
"Channel_info_end",
"Channel_info_start",
"Channel : Al",
"Points : 0",
"Range : 0.000000 - 0.000000",
"Step : 0.010000",
"Channel_info_end",
"Channel_info_start",
"Channel : Si",
"Points : 0",
"Range : 0.000000 - 0.000000",
"Step : 0.010000",
"Channel_info_end",
"Channel_info_start",
"Channel : P ",
"Points : 0",
"Range : 0.000000 - 0.000000",
"Step : 0.010000",
"Channel_info_end",
"Channel_info_start",
"Channel : S ",
"Points : 0",
"Range : 0.000000 - 0.000000",
"Step : 0.010000",
"Channel_info_end",
"Channel_info_start",
"Channel : Cl",
"Points : 0",
"Range : 0.000000 - 0.000000",
"Step : 0.010000",
"Channel_info_end",
"Channel_info_start",
"Channel : K ",
"Points : 0",
"Range : 0.000000 - 0.000000",
"Step : 0.010000",
"Channel_info_end",
"Channel_info_start",
"Channel : Ca",
"Points : 0",
"Range : 0.000000 - 0.000000",
"Step : 0.010000",
"Channel_info_end",
"Channel_info_start",
"Channel : Ti",
"Points : 0",
"Range : 0.000000 - 0.000000",
"Step : 0.010000",
"Channel_info_end",
"Channel_info_start",
"Channel : V ",
"Points : 0",
"Range : 0.000000 - 0.000000",
"Step : 0.010000",
"Channel_info_end",
"Channel_info_start",
"Channel : Cr",
"Points : 0",
"Range : 0.000000 - 0.000000",
"Step : 0.010000",
"Channel_info_end",
"Channel_info_start",
"Channel : Mn",
"Points : 0",
"Range : 0.000000 - 0.000000",
"Step : 0.010000",
"Channel_info_end",
"Channel_info_start",
"Channel : Fe",
"Points : 0",
"Range : 0.000000 - 0.000000",
"Step : 0.010000",
"Channel_info_end",
"Channel_info_start",
"Channel : Cu",
"Points : 0",
"Range : 0.000000 - 0.000000",
"Step : 0.010000",
"Channel_info_end",
"Channel_info_start",
"Channel : Zn",
"Points : 0",
"Range : 0.000000 - 0.000000",
"Step : 0.010000",
"Channel_info_end",
"Channel_info_start",
"Channel : Sr",
"Points : 0",
"Range : 0.000000 - 0.000000",
"Step : 0.010000",
"Channel_info_end",
"Channel_info_start",
"Channel : Pb",
"Points : 0",
"Range : 0.000000 - 0.000000",
"Step : 0.010000",
"Channel_info_end",
"",
"Qualitative Result",
"--------------------------------------------------------------------------------",
"Element :  Bi, Ru, Ca, Pb",
"",
"Peak List",
"--------------------------------------------------------------------------------",
"Channel               Line        keV     Net Int.(cps/uA)",
"--------------------------------------------------------------------------------",
"Na                    ----         0.70     0.024",
"                      ----         0.81     0.014",
"                      ----         1.90     0.090",
"                      ----         2.21     0.049",
"                      BiMa         2.44     1.706",
"                      RuLb1        2.75     0.152",
"                      ----         3.20     0.071",
"                      CaKa         3.69     0.295",
"                      CaKb         4.03     0.039",
"                      ----         5.66     0.034",
"                      BiLL         9.42     0.361",
"                      BiLa        10.81     6.061",
"                      ----        11.68     0.079",
"                      PbLb1       12.57     0.088",
"                      BiLb1       13.00     4.127",
"                      ----        13.40     0.110",
"                      BiLg1       15.22     0.624",
"                      BiLg2       15.60     0.182",
"                      RuKa        19.19     0.146",
"                      ----        20.01     0.126",
"--------------------------------------------------------------------------------",
"",
"Quantitative Result",
"--------------------------------------------------------------------------------",
"Analyte               Result             Std.Dev. Proc.-Calc. Line Intensity(cps/uA)",
"--------------------------------------------------------------------------------",
"====[No. 1 Layer]====< Layer1               >===============================",
"Layer1                   0.000 ug/cm2    -------- Flux       -------- --------",