File: inputs/edxCalibration/edx_raw/2010/junho/CaF2 31496.20100611000040.csv
"Sample    : CaF2 31496",
"Operator  : thiago",
"Comment  : cubatao-g-policarbonato",
"Group     : kerr2007ag180cal_lt",
"Date       : 2010-06-10 23:56:27",
"",
"Mesurement Condition",
"------------------------------------------------------------------------------------",
"Instrument : 700HS2   Atmosphere : Vac.   Collimator : 10(mm)   Spin : No",
"------------------------------------------------------------------------------------",
"Analyte               TG kV   uA      FI Acq.(keV)  Anal.(keV)  Time(sec)     DT(%)",
"------------------------------------------------------------------------------------",
"Na                    Rh 50  548-Auto Al  0 - 20    0.8 - 1.2   Live -  179   16",
"",
"<Profile>",
"Channel_info_start",
"Channel : Na",
"Points : 2048",
"Range : 0.000000 - 20.48",
"Step : 0.010000",
"Channel_info_end",
"0",
"0",
"0",
"0",
"1",
"39",
"24",
"35",
"31",
"31",
"27",
"25",
"36",
"28",
"32",
"31",
"32",
"27",
"30",
"42",
"50",
"35",
"38",
"54",
"103",
"161",
"126",
"238",
"411",
"282",
"80",
"62",
"78",
"66",
"37",
"39",
"30",
"56",
"49",
"49",
"59",
"69",
"92",
"94",
"127",
"184",
"159",
"204",
"194",
"228",
"374",
"3016",
"19291",
"28240",
"7791",
"745",
"1248",
"3781",
"2691",
"530",
"67",
"49",
"73",
"99",
"105",
"113",
"116",
"116",
"79",
"102",
"77",
"72",
"83",
"82",
"78",
"83",
"90",
"78",
"88",
"105",
"111",
"96",
"88",
"101",
"129",
"126",
"134",
"158",
"156",
"165",
"180",
"222",
"195",
"171",
"156",
"180",
"159",
"191",
"191",
"206",
"170",
"213",
"210",
"191",
"191",
"200",
"195",
"217",
"164",
"184",
"183",
"171",
"194",
"213",
"282",
"458",
"591",
"452",
"308",
"194",
"172",
"209",
"231",
"280",
"278",
"196",
"170",
"211",
"199",
"179",
"192",
"219",
"264",
"383",
"372",
"301",
"250",
"244",
"226",
"197",
"187",
"196",
"192",
"188",
"188",
"186",
"170",
"167",
"184",
"207",
"175",
"196",
"198",
"206",
"206",
"223",
"221",
"180",
"177",
"174",
"181",
"184",
"188",
"170",
"170",
"179",
"151",
"167",
"170",
"152",
"172",
"179",
"164",
"183",
"150",
"164",
"153",
"179",
"160",
"181",
"145",
"158",
"172",
"158",
"135",
"168",
"182",
"163",
"133",
"151",
"138",
"150",
"144",
"159",
"140",
"157",
"121",
"138",
"125",
"172",
"126",
"134",
"119",
"144",
"151",
"137",
"118",
"144",
"133",
"159",
"168",
"130",
"145",
"128",
"129",
"130",
"139",
"128",
"117",
"100",
"115",
"110",
"126",
"136",
"138",
"123",
"130",
"115",
"134",
"92",
"93",
"98",
"106",
"113",
"107",
"124",
"121",
"117",
"110",
"134",
"114",
"126",
"107",
"101",
"118",
"110",
"105",
"117",
"118",
"101",
"105",
"94",
"115",
"116",
"91",
"116",
"138",
"108",
"127",
"122",
"124",
"116",
"118",
"131",
"161",
"190",
"210",
"245",
"276",
"341",
"454",
"609",
"695",
"742",
"782",
"769",
"712",
"578",
"458",
"334",
"285",
"172",
"140",
"173",
"213",
"264",
"300",
"337",
"331",
"232",
"156",
"112",
"98",
"55098",
"Channel_info_start",
"Channel : Mg",
"Points : 0",
"Range : 0.000000 - 0.000000",
"Step : 0.010000",
"Channel_info_end",
"Channel_info_start",
"Channel : Al",
"Points : 0",
"Range : 0.000000 - 0.000000",
"Step : 0.010000",
"Channel_info_end",
"Channel_info_start",
"Channel : Si",
"Points : 0",
"Range : 0.000000 - 0.000000",
"Step : 0.010000",
"Channel_info_end",
"Channel_info_start",
"Channel : P ",
"Points : 0",
"Range : 0.000000 - 0.000000",
"Step : 0.010000",
"Channel_info_end",
"Channel_info_start",
"Channel : S ",
"Points : 0",
"Range : 0.000000 - 0.000000",
"Step : 0.010000",
"Channel_info_end",
"Channel_info_start",
"Channel : Cl",
"Points : 0",
"Range : 0.000000 - 0.000000",
"Step : 0.010000",
"Channel_info_end",
"Channel_info_start",
"Channel : K ",
"Points : 0",
"Range : 0.000000 - 0.000000",
"Step : 0.010000",
"Channel_info_end",
"Channel_info_start",
"Channel : Ca",
"Points : 0",
"Range : 0.000000 - 0.000000",
"Step : 0.010000",
"Channel_info_end",
"Channel_info_start",
"Channel : Ti",
"Points : 0",
"Range : 0.000000 - 0.000000",
"Step : 0.010000",
"Channel_info_end",
"Channel_info_start",
"Channel : V ",
"Points : 0",
"Range : 0.000000 - 0.000000",
"Step : 0.010000",
"Channel_info_end",
"Channel_info_start",
"Channel : Cr",
"Points : 0",
"Range : 0.000000 - 0.000000",
"Step : 0.010000",
"Channel_info_end",
"Channel_info_start",
"Channel : Mn",
"Points : 0",
"Range : 0.000000 - 0.000000",
"Step : 0.010000",
"Channel_info_end",
"Channel_info_start",
"Channel : Fe",
"Points : 0",
"Range : 0.000000 - 0.000000",
"Step : 0.010000",
"Channel_info_end",
"Channel_info_start",
"Channel : Cu",
"Points : 0",
"Range : 0.000000 - 0.000000",
"Step : 0.010000",
"Channel_info_end",
"Channel_info_start",
"Channel : Zn",
"Points : 0",
"Range : 0.000000 - 0.000000",
"Step : 0.010000",
"Channel_info_end",
"Channel_info_start",
"Channel : Sr",
"Points : 0",
"Range : 0.000000 - 0.000000",
"Step : 0.010000",
"Channel_info_end",
"Channel_info_start",
"Channel : Pb",
"Points : 0",
"Range : 0.000000 - 0.000000",
"Step : 0.010000",
"Channel_info_end",
"",
"Qualitative Result",
"--------------------------------------------------------------------------------",
"Element :  Ta, P , Ca, Sc, Ru",
"",
"Peak List",
"--------------------------------------------------------------------------------",
"Channel               Line        keV     Net Int.(cps/uA)",
"--------------------------------------------------------------------------------",
"Na                    TaMa         1.74     0.013",
"                      P Ka         1.95     0.048",
"                      CaKa         3.68     4.112",
"                      CaKb         4.02     0.513",
"                      ScKa         4.09     0.069",
"                      ScKb         4.53     0.010",
"                      TaLa         8.12     0.068",
"                      TaLb1        9.35     0.033",
"                      RuKa        19.20     0.141",
"                      ----        19.97     0.038",
"--------------------------------------------------------------------------------",
"",
"Quantitative Result",
"--------------------------------------------------------------------------------",
"Analyte               Result             Std.Dev. Proc.-Calc. Line Intensity(cps/uA)",
"--------------------------------------------------------------------------------",
"====[No. 1 Layer]====< Layer1               >===============================",
"Layer1                   0.000 ug/cm2    -------- Flux       -------- --------",