File: inputs/edxCalibration/edx_raw/2010/junho/CaF2 31496.20100525205545.csv
"Sample    : CaF2 31496",
"Operator  : luisf",
"Comment  : cubatao-g-policarbonato",
"Group     : kerr2007ag180cal_lt",
"Date       : 2010-05-25 20:51:34",
"",
"Mesurement Condition",
"------------------------------------------------------------------------------------",
"Instrument : 700HS2   Atmosphere : Vac.   Collimator : 10(mm)   Spin : No",
"------------------------------------------------------------------------------------",
"Analyte               TG kV   uA      FI Acq.(keV)  Anal.(keV)  Time(sec)     DT(%)",
"------------------------------------------------------------------------------------",
"Na                    Rh 50  500-Auto Al  0 - 20    0.8 - 1.2   Live -  179   14",
"",
"<Profile>",
"Channel_info_start",
"Channel : Na",
"Points : 2048",
"Range : 0.000000 - 20.48",
"Step : 0.010000",
"Channel_info_end",
"0",
"0",
"0",
"0",
"1",
"33",
"29",
"24",
"25",
"25",
"35",
"25",
"35",
"26",
"21",
"21",
"30",
"37",
"29",
"32",
"32",
"45",
"44",
"27",
"77",
"158",
"121",
"196",
"411",
"235",
"60",
"59",
"77",
"52",
"29",
"48",
"44",
"37",
"46",
"41",
"41",
"70",
"94",
"111",
"122",
"146",
"138",
"155",
"163",
"188",
"308",
"2798",
"17825",
"26317",
"7264",
"665",
"1103",
"3388",
"2467",
"529",
"76",
"48",
"65",
"77",
"96",
"118",
"76",
"81",
"88",
"78",
"77",
"64",
"79",
"71",
"73",
"59",
"59",
"75",
"71",
"75",
"82",
"95",
"92",
"108",
"115",
"110",
"127",
"110",
"131",
"175",
"143",
"169",
"177",
"131",
"143",
"158",
"155",
"178",
"198",
"181",
"163",
"207",
"181",
"184",
"186",
"201",
"188",
"188",
"173",
"150",
"144",
"166",
"181",
"199",
"287",
"435",
"503",
"439",
"260",
"232",
"175",
"190",
"252",
"288",
"247",
"185",
"180",
"189",
"160",
"165",
"157",
"215",
"303",
"356",
"341",
"263",
"232",
"214",
"206",
"195",
"166",
"195",
"156",
"180",
"172",
"151",
"176",
"174",
"160",
"163",
"173",
"189",
"161",
"190",
"162",
"187",
"197",
"183",
"177",
"150",
"174",
"184",
"161",
"164",
"138",
"160",
"149",
"146",
"147",
"174",
"152",
"157",
"168",
"172",
"145",
"138",
"161",
"134",
"147",
"131",
"146",
"148",
"139",
"153",
"152",
"149",
"133",
"148",
"165",
"106",
"116",
"126",
"129",
"141",
"133",
"143",
"134",
"133",
"128",
"124",
"132",
"124",
"144",
"131",
"125",
"140",
"120",
"122",
"135",
"148",
"134",
"126",
"126",
"126",
"109",
"126",
"127",
"165",
"103",
"120",
"119",
"138",
"111",
"121",
"119",
"109",
"124",
"97",
"110",
"113",
"115",
"116",
"123",
"112",
"103",
"94",
"100",
"111",
"121",
"118",
"91",
"121",
"125",
"102",
"111",
"94",
"99",
"111",
"98",
"122",
"94",
"95",
"119",
"119",
"104",
"89",
"113",
"112",
"115",
"143",
"110",
"135",
"125",
"150",
"134",
"175",
"153",
"203",
"271",
"331",
"404",
"556",
"620",
"677",
"696",
"745",
"628",
"526",
"405",
"291",
"255",
"186",
"169",
"144",
"174",
"245",
"291",
"293",
"267",
"211",
"126",
"94",
"92",
"50003",
"Channel_info_start",
"Channel : Mg",
"Points : 0",
"Range : 0.000000 - 0.000000",
"Step : 0.010000",
"Channel_info_end",
"Channel_info_start",
"Channel : Al",
"Points : 0",
"Range : 0.000000 - 0.000000",
"Step : 0.010000",
"Channel_info_end",
"Channel_info_start",
"Channel : Si",
"Points : 0",
"Range : 0.000000 - 0.000000",
"Step : 0.010000",
"Channel_info_end",
"Channel_info_start",
"Channel : P ",
"Points : 0",
"Range : 0.000000 - 0.000000",
"Step : 0.010000",
"Channel_info_end",
"Channel_info_start",
"Channel : S ",
"Points : 0",
"Range : 0.000000 - 0.000000",
"Step : 0.010000",
"Channel_info_end",
"Channel_info_start",
"Channel : Cl",
"Points : 0",
"Range : 0.000000 - 0.000000",
"Step : 0.010000",
"Channel_info_end",
"Channel_info_start",
"Channel : K ",
"Points : 0",
"Range : 0.000000 - 0.000000",
"Step : 0.010000",
"Channel_info_end",
"Channel_info_start",
"Channel : Ca",
"Points : 0",
"Range : 0.000000 - 0.000000",
"Step : 0.010000",
"Channel_info_end",
"Channel_info_start",
"Channel : Ti",
"Points : 0",
"Range : 0.000000 - 0.000000",
"Step : 0.010000",
"Channel_info_end",
"Channel_info_start",
"Channel : V ",
"Points : 0",
"Range : 0.000000 - 0.000000",
"Step : 0.010000",
"Channel_info_end",
"Channel_info_start",
"Channel : Cr",
"Points : 0",
"Range : 0.000000 - 0.000000",
"Step : 0.010000",
"Channel_info_end",
"Channel_info_start",
"Channel : Mn",
"Points : 0",
"Range : 0.000000 - 0.000000",
"Step : 0.010000",
"Channel_info_end",
"Channel_info_start",
"Channel : Fe",
"Points : 0",
"Range : 0.000000 - 0.000000",
"Step : 0.010000",
"Channel_info_end",
"Channel_info_start",
"Channel : Cu",
"Points : 0",
"Range : 0.000000 - 0.000000",
"Step : 0.010000",
"Channel_info_end",
"Channel_info_start",
"Channel : Zn",
"Points : 0",
"Range : 0.000000 - 0.000000",
"Step : 0.010000",
"Channel_info_end",
"Channel_info_start",
"Channel : Sr",
"Points : 0",
"Range : 0.000000 - 0.000000",
"Step : 0.010000",
"Channel_info_end",
"Channel_info_start",
"Channel : Pb",
"Points : 0",
"Range : 0.000000 - 0.000000",
"Step : 0.010000",
"Channel_info_end",
"",
"Qualitative Result",
"--------------------------------------------------------------------------------",
"Element :  Ta, P , Ca, Ru",
"",
"Peak List",
"--------------------------------------------------------------------------------",
"Channel               Line        keV     Net Int.(cps/uA)",
"--------------------------------------------------------------------------------",
"Na                    TaMa         1.73     0.013",
"                      P Ka         1.96     0.048",
"                      CaKa         3.69     4.186",
"                      CaKb         4.00     0.520",
"                      TaLa         8.15     0.063",
"                      TaLb1        9.32     0.043",
"                      RuKa        19.24     0.137",
"                      ----        19.96     0.032",
"--------------------------------------------------------------------------------",
"",
"Quantitative Result",
"--------------------------------------------------------------------------------",
"Analyte               Result             Std.Dev. Proc.-Calc. Line Intensity(cps/uA)",
"--------------------------------------------------------------------------------",
"====[No. 1 Layer]====< Layer1               >===============================",
"Layer1                   0.000 ug/cm2    -------- Flux       -------- --------",