File: inputs/edxCalibration/edx_raw/2010/junho/Cr 15756.20100525211617.csv
"Sample    : Cr 15756",
"Operator  : luisf",
"Comment  : cubatao-g-policarbonato",
"Group     : kerr2007ag180cal_lt",
"Date       : 2010-05-25 21:12:17",
"",
"Mesurement Condition",
"------------------------------------------------------------------------------------",
"Instrument : 700HS2   Atmosphere : Vac.   Collimator : 10(mm)   Spin : No",
"------------------------------------------------------------------------------------",
"Analyte               TG kV   uA      FI Acq.(keV)  Anal.(keV)  Time(sec)     DT(%)",
"------------------------------------------------------------------------------------",
"Na                    Rh 50  210-Auto Al  0 - 20    0.8 - 1.2   Live -  180   14",
"",
"<Profile>",
"Channel_info_start",
"Channel : Na",
"Points : 2048",
"Range : 0.000000 - 20.48",
"Step : 0.010000",
"Channel_info_end",
"0",
"0",
"0",
"0",
"0",
"16",
"13",
"13",
"17",
"20",
"12",
"8",
"9",
"12",
"9",
"14",
"10",
"21",
"9",
"13",
"12",
"16",
"12",
"16",
"20",
"26",
"17",
"17",
"44",
"57",
"23",
"21",
"23",
"28",
"21",
"17",
"11",
"13",
"15",
"17",
"18",
"15",
"14",
"20",
"16",
"20",
"17",
"28",
"34",
"25",
"51",
"137",
"458",
"598",
"170",
"70",
"57",
"102",
"73",
"44",
"63",
"54",
"42",
"63",
"74",
"99",
"73",
"79",
"80",
"63",
"65",
"102",
"106",
"159",
"229",
"1418",
"12069",
"32590",
"23743",
"5378",
"408",
"138",
"174",
"730",
"2793",
"4353",
"1960",
"424",
"74",
"59",
"62",
"94",
"70",
"78",
"91",
"60",
"92",
"72",
"89",
"73",
"74",
"56",
"64",
"74",
"73",
"62",
"54",
"82",
"54",
"69",
"72",
"75",
"63",
"94",
"84",
"72",
"85",
"70",
"64",
"72",
"85",
"73",
"105",
"108",
"117",
"90",
"86",
"72",
"51",
"76",
"51",
"77",
"54",
"64",
"78",
"69",
"73",
"64",
"86",
"60",
"74",
"93",
"101",
"67",
"79",
"82",
"84",
"87",
"86",
"79",
"78",
"59",
"74",
"75",
"107",
"104",
"82",
"65",
"66",
"87",
"68",
"82",
"76",
"84",
"74",
"75",
"65",
"64",
"66",
"66",
"65",
"63",
"56",
"66",
"54",
"76",
"75",
"56",
"55",
"91",
"68",
"66",
"68",
"59",
"80",
"61",
"76",
"59",
"66",
"59",
"60",
"65",
"48",
"59",
"52",
"62",
"74",
"76",
"50",
"66",
"56",
"64",
"70",
"60",
"52",
"60",
"50",
"61",
"59",
"44",
"55",
"54",
"54",
"56",
"51",
"57",
"49",
"62",
"40",
"40",
"54",
"53",
"43",
"48",
"44",
"46",
"48",
"42",
"51",
"41",
"59",
"61",
"40",
"34",
"54",
"51",
"47",
"39",
"43",
"52",
"38",
"38",
"42",
"50",
"46",
"48",
"37",
"47",
"36",
"35",
"51",
"41",
"37",
"54",
"43",
"53",
"61",
"43",
"35",
"63",
"43",
"70",
"72",
"56",
"65",
"79",
"68",
"85",
"92",
"128",
"181",
"213",
"280",
"287",
"303",
"301",
"226",
"237",
"208",
"120",
"118",
"81",
"65",
"64",
"92",
"115",
"128",
"134",
"140",
"91",
"47",
"46",
"34",
"21152",
"Channel_info_start",
"Channel : Mg",
"Points : 0",
"Range : 0.000000 - 0.000000",
"Step : 0.010000",
"Channel_info_end",
"Channel_info_start",
"Channel : Al",
"Points : 0",
"Range : 0.000000 - 0.000000",
"Step : 0.010000",
"Channel_info_end",
"Channel_info_start",
"Channel : Si",
"Points : 0",
"Range : 0.000000 - 0.000000",
"Step : 0.010000",
"Channel_info_end",
"Channel_info_start",
"Channel : P ",
"Points : 0",
"Range : 0.000000 - 0.000000",
"Step : 0.010000",
"Channel_info_end",
"Channel_info_start",
"Channel : S ",
"Points : 0",
"Range : 0.000000 - 0.000000",
"Step : 0.010000",
"Channel_info_end",
"Channel_info_start",
"Channel : Cl",
"Points : 0",
"Range : 0.000000 - 0.000000",
"Step : 0.010000",
"Channel_info_end",
"Channel_info_start",
"Channel : K ",
"Points : 0",
"Range : 0.000000 - 0.000000",
"Step : 0.010000",
"Channel_info_end",
"Channel_info_start",
"Channel : Ca",
"Points : 0",
"Range : 0.000000 - 0.000000",
"Step : 0.010000",
"Channel_info_end",
"Channel_info_start",
"Channel : Ti",
"Points : 0",
"Range : 0.000000 - 0.000000",
"Step : 0.010000",
"Channel_info_end",
"Channel_info_start",
"Channel : V ",
"Points : 0",
"Range : 0.000000 - 0.000000",
"Step : 0.010000",
"Channel_info_end",
"Channel_info_start",
"Channel : Cr",
"Points : 0",
"Range : 0.000000 - 0.000000",
"Step : 0.010000",
"Channel_info_end",
"Channel_info_start",
"Channel : Mn",
"Points : 0",
"Range : 0.000000 - 0.000000",
"Step : 0.010000",
"Channel_info_end",
"Channel_info_start",
"Channel : Fe",
"Points : 0",
"Range : 0.000000 - 0.000000",
"Step : 0.010000",
"Channel_info_end",
"Channel_info_start",
"Channel : Cu",
"Points : 0",
"Range : 0.000000 - 0.000000",
"Step : 0.010000",
"Channel_info_end",
"Channel_info_start",
"Channel : Zn",
"Points : 0",
"Range : 0.000000 - 0.000000",
"Step : 0.010000",
"Channel_info_end",
"Channel_info_start",
"Channel : Sr",
"Points : 0",
"Range : 0.000000 - 0.000000",
"Step : 0.010000",
"Channel_info_end",
"Channel_info_start",
"Channel : Pb",
"Points : 0",
"Range : 0.000000 - 0.000000",
"Step : 0.010000",
"Channel_info_end",
"",
"Qualitative Result",
"--------------------------------------------------------------------------------",
"Element :  P , Cr, Ru",
"",
"Peak List",
"--------------------------------------------------------------------------------",
"Channel               Line        keV     Net Int.(cps/uA)",
"--------------------------------------------------------------------------------",
"Na                    P Ka         2.01     0.013",
"                      ----         3.68     0.235",
"                      CrKa         5.40    13.629",
"                      CrKb         5.94     1.739",
"                      RuKa        19.27     0.144",
"--------------------------------------------------------------------------------",
"",
"Quantitative Result",
"--------------------------------------------------------------------------------",
"Analyte               Result             Std.Dev. Proc.-Calc. Line Intensity(cps/uA)",
"--------------------------------------------------------------------------------",
"====[No. 1 Layer]====< Layer1               >===============================",
"Layer1                   0.000 ug/cm2    -------- Flux       -------- --------",