File: inputs/edxCalibration/edx_raw/2010/junho/Cr 31499.20100525215754.csv
"Sample    : Cr 31499",
"Operator  : luisf",
"Comment  : cubatao-g-policarbonato",
"Group     : kerr2007ag180cal_lt",
"Date       : 2010-05-25 21:51:52",
"",
"Mesurement Condition",
"------------------------------------------------------------------------------------",
"Instrument : 700HS2   Atmosphere : Vac.   Collimator : 10(mm)   Spin : No",
"------------------------------------------------------------------------------------",
"Analyte               TG kV   uA      FI Acq.(keV)  Anal.(keV)  Time(sec)     DT(%)",
"------------------------------------------------------------------------------------",
"Na                    Rh 50  210-Auto Al  0 - 20    0.8 - 1.2   Live -  179   15",
"",
"<Profile>",
"Channel_info_start",
"Channel : Na",
"Points : 2048",
"Range : 0.000000 - 20.48",
"Step : 0.010000",
"Channel_info_end",
"0",
"0",
"0",
"0",
"1",
"16",
"16",
"13",
"22",
"26",
"22",
"10",
"11",
"13",
"13",
"16",
"12",
"16",
"10",
"10",
"15",
"12",
"15",
"20",
"19",
"32",
"24",
"28",
"64",
"84",
"16",
"11",
"16",
"20",
"11",
"11",
"21",
"17",
"23",
"17",
"17",
"15",
"25",
"15",
"29",
"24",
"26",
"23",
"28",
"26",
"34",
"158",
"763",
"922",
"280",
"74",
"80",
"139",
"129",
"71",
"59",
"60",
"69",
"63",
"81",
"95",
"96",
"101",
"98",
"91",
"110",
"113",
"110",
"156",
"236",
"1505",
"13026",
"35151",
"25534",
"5594",
"454",
"137",
"190",
"827",
"3156",
"4579",
"2193",
"411",
"83",
"49",
"76",
"83",
"70",
"79",
"94",
"94",
"79",
"86",
"97",
"73",
"65",
"64",
"77",
"49",
"72",
"80",
"77",
"72",
"65",
"67",
"67",
"104",
"74",
"79",
"73",
"92",
"79",
"68",
"77",
"76",
"80",
"84",
"110",
"120",
"119",
"95",
"65",
"64",
"82",
"76",
"70",
"73",
"51",
"74",
"77",
"64",
"67",
"77",
"77",
"81",
"84",
"73",
"76",
"83",
"69",
"94",
"69",
"104",
"87",
"84",
"74",
"81",
"77",
"111",
"97",
"117",
"113",
"65",
"62",
"67",
"71",
"86",
"92",
"69",
"76",
"68",
"70",
"65",
"52",
"68",
"77",
"65",
"51",
"76",
"75",
"80",
"64",
"82",
"73",
"76",
"67",
"58",
"57",
"72",
"55",
"65",
"60",
"75",
"49",
"62",
"67",
"57",
"58",
"70",
"60",
"57",
"44",
"46",
"70",
"55",
"63",
"63",
"57",
"56",
"58",
"50",
"40",
"67",
"40",
"62",
"51",
"68",
"44",
"58",
"48",
"49",
"50",
"49",
"34",
"62",
"44",
"61",
"49",
"56",
"55",
"48",
"58",
"49",
"50",
"49",
"45",
"51",
"61",
"34",
"49",
"56",
"49",
"35",
"41",
"45",
"41",
"37",
"48",
"44",
"40",
"43",
"51",
"47",
"41",
"47",
"43",
"46",
"39",
"49",
"38",
"46",
"51",
"44",
"39",
"53",
"56",
"57",
"40",
"70",
"67",
"57",
"86",
"92",
"92",
"135",
"189",
"242",
"264",
"315",
"326",
"282",
"262",
"194",
"164",
"131",
"101",
"70",
"75",
"73",
"91",
"119",
"155",
"127",
"144",
"105",
"57",
"38",
"35",
"21404",
"Channel_info_start",
"Channel : Mg",
"Points : 0",
"Range : 0.000000 - 0.000000",
"Step : 0.010000",
"Channel_info_end",
"Channel_info_start",
"Channel : Al",
"Points : 0",
"Range : 0.000000 - 0.000000",
"Step : 0.010000",
"Channel_info_end",
"Channel_info_start",
"Channel : Si",
"Points : 0",
"Range : 0.000000 - 0.000000",
"Step : 0.010000",
"Channel_info_end",
"Channel_info_start",
"Channel : P ",
"Points : 0",
"Range : 0.000000 - 0.000000",
"Step : 0.010000",
"Channel_info_end",
"Channel_info_start",
"Channel : S ",
"Points : 0",
"Range : 0.000000 - 0.000000",
"Step : 0.010000",
"Channel_info_end",
"Channel_info_start",
"Channel : Cl",
"Points : 0",
"Range : 0.000000 - 0.000000",
"Step : 0.010000",
"Channel_info_end",
"Channel_info_start",
"Channel : K ",
"Points : 0",
"Range : 0.000000 - 0.000000",
"Step : 0.010000",
"Channel_info_end",
"Channel_info_start",
"Channel : Ca",
"Points : 0",
"Range : 0.000000 - 0.000000",
"Step : 0.010000",
"Channel_info_end",
"Channel_info_start",
"Channel : Ti",
"Points : 0",
"Range : 0.000000 - 0.000000",
"Step : 0.010000",
"Channel_info_end",
"Channel_info_start",
"Channel : V ",
"Points : 0",
"Range : 0.000000 - 0.000000",
"Step : 0.010000",
"Channel_info_end",
"Channel_info_start",
"Channel : Cr",
"Points : 0",
"Range : 0.000000 - 0.000000",
"Step : 0.010000",
"Channel_info_end",
"Channel_info_start",
"Channel : Mn",
"Points : 0",
"Range : 0.000000 - 0.000000",
"Step : 0.010000",
"Channel_info_end",
"Channel_info_start",
"Channel : Fe",
"Points : 0",
"Range : 0.000000 - 0.000000",
"Step : 0.010000",
"Channel_info_end",
"Channel_info_start",
"Channel : Cu",
"Points : 0",
"Range : 0.000000 - 0.000000",
"Step : 0.010000",
"Channel_info_end",
"Channel_info_start",
"Channel : Zn",
"Points : 0",
"Range : 0.000000 - 0.000000",
"Step : 0.010000",
"Channel_info_end",
"Channel_info_start",
"Channel : Sr",
"Points : 0",
"Range : 0.000000 - 0.000000",
"Step : 0.010000",
"Channel_info_end",
"Channel_info_start",
"Channel : Pb",
"Points : 0",
"Range : 0.000000 - 0.000000",
"Step : 0.010000",
"Channel_info_end",
"",
"Qualitative Result",
"--------------------------------------------------------------------------------",
"Element :  Ca, Cr, P , Ru",
"",
"Peak List",
"--------------------------------------------------------------------------------",
"Channel               Line        keV     Net Int.(cps/uA)",
"--------------------------------------------------------------------------------",
"Na                    CaLa         0.36     0.003",
"                      CrLa         0.56     0.005",
"                      P Ka         2.00     0.024",
"                      CaKa         3.69     0.371",
"                      CaKb         4.02     0.036",
"                      CrKa         5.41    14.840",
"                      CrKb         5.94     1.849",
"                      ----         8.63     0.035",
"                      RuKa        19.20     0.145",
"                      ----        19.44     0.067",
"                      ----        20.01     0.061",
"--------------------------------------------------------------------------------",
"",
"Quantitative Result",
"--------------------------------------------------------------------------------",
"Analyte               Result             Std.Dev. Proc.-Calc. Line Intensity(cps/uA)",
"--------------------------------------------------------------------------------",
"====[No. 1 Layer]====< Layer1               >===============================",
"Layer1                   0.000 ug/cm2    -------- Flux       -------- --------",