File: inputs/edxCalibration/edx_raw/2010/junho/Cr 31499.20100611004758.csv
"Sample    : Cr 31499",
"Operator  : thiago",
"Comment  : cubatao-g-policarbonato",
"Group     : kerr2007ag180cal_lt",
"Date       : 2010-06-11 00:43:56",
"",
"Mesurement Condition",
"------------------------------------------------------------------------------------",
"Instrument : 700HS2   Atmosphere : Vac.   Collimator : 10(mm)   Spin : No",
"------------------------------------------------------------------------------------",
"Analyte               TG kV   uA      FI Acq.(keV)  Anal.(keV)  Time(sec)     DT(%)",
"------------------------------------------------------------------------------------",
"Na                    Rh 50  210-Auto Al  0 - 20    0.8 - 1.2   Live -  180   14",
"",
"<Profile>",
"Channel_info_start",
"Channel : Na",
"Points : 2048",
"Range : 0.000000 - 20.48",
"Step : 0.010000",
"Channel_info_end",
"0",
"0",
"0",
"0",
"0",
"13",
"11",
"10",
"7",
"8",
"5",
"5",
"16",
"8",
"16",
"15",
"14",
"11",
"14",
"17",
"11",
"22",
"15",
"13",
"20",
"22",
"10",
"23",
"54",
"70",
"27",
"23",
"15",
"11",
"9",
"13",
"21",
"16",
"20",
"19",
"23",
"19",
"19",
"19",
"19",
"16",
"19",
"27",
"22",
"27",
"32",
"169",
"720",
"865",
"278",
"62",
"58",
"171",
"108",
"59",
"60",
"72",
"47",
"77",
"63",
"97",
"89",
"89",
"90",
"77",
"67",
"96",
"119",
"173",
"211",
"1577",
"12775",
"34336",
"24342",
"5249",
"351",
"128",
"188",
"843",
"2980",
"4557",
"2083",
"366",
"71",
"63",
"59",
"75",
"86",
"97",
"94",
"85",
"79",
"76",
"61",
"71",
"62",
"77",
"59",
"49",
"59",
"73",
"74",
"75",
"73",
"74",
"82",
"75",
"86",
"88",
"84",
"100",
"86",
"72",
"75",
"78",
"90",
"84",
"99",
"127",
"127",
"62",
"77",
"67",
"61",
"69",
"89",
"74",
"57",
"81",
"76",
"63",
"77",
"74",
"67",
"93",
"85",
"72",
"76",
"78",
"79",
"76",
"72",
"82",
"73",
"70",
"64",
"58",
"81",
"94",
"107",
"119",
"97",
"73",
"62",
"63",
"81",
"78",
"72",
"78",
"69",
"84",
"67",
"77",
"60",
"76",
"62",
"57",
"79",
"53",
"58",
"75",
"73",
"63",
"56",
"82",
"74",
"67",
"66",
"73",
"51",
"60",
"62",
"59",
"56",
"77",
"56",
"63",
"60",
"71",
"66",
"61",
"73",
"60",
"53",
"74",
"62",
"47",
"38",
"59",
"51",
"44",
"48",
"71",
"56",
"46",
"39",
"63",
"46",
"58",
"47",
"46",
"57",
"46",
"59",
"52",
"47",
"59",
"34",
"39",
"67",
"40",
"38",
"46",
"45",
"35",
"45",
"60",
"37",
"62",
"44",
"39",
"54",
"42",
"39",
"47",
"49",
"44",
"61",
"38",
"51",
"51",
"46",
"45",
"42",
"37",
"42",
"34",
"51",
"36",
"49",
"40",
"54",
"47",
"37",
"42",
"52",
"49",
"47",
"62",
"65",
"74",
"76",
"88",
"111",
"120",
"173",
"240",
"285",
"311",
"329",
"296",
"261",
"218",
"152",
"113",
"88",
"79",
"75",
"57",
"103",
"119",
"134",
"138",
"143",
"83",
"58",
"35",
"49",
"21204",
"Channel_info_start",
"Channel : Mg",
"Points : 0",
"Range : 0.000000 - 0.000000",
"Step : 0.010000",
"Channel_info_end",
"Channel_info_start",
"Channel : Al",
"Points : 0",
"Range : 0.000000 - 0.000000",
"Step : 0.010000",
"Channel_info_end",
"Channel_info_start",
"Channel : Si",
"Points : 0",
"Range : 0.000000 - 0.000000",
"Step : 0.010000",
"Channel_info_end",
"Channel_info_start",
"Channel : P ",
"Points : 0",
"Range : 0.000000 - 0.000000",
"Step : 0.010000",
"Channel_info_end",
"Channel_info_start",
"Channel : S ",
"Points : 0",
"Range : 0.000000 - 0.000000",
"Step : 0.010000",
"Channel_info_end",
"Channel_info_start",
"Channel : Cl",
"Points : 0",
"Range : 0.000000 - 0.000000",
"Step : 0.010000",
"Channel_info_end",
"Channel_info_start",
"Channel : K ",
"Points : 0",
"Range : 0.000000 - 0.000000",
"Step : 0.010000",
"Channel_info_end",
"Channel_info_start",
"Channel : Ca",
"Points : 0",
"Range : 0.000000 - 0.000000",
"Step : 0.010000",
"Channel_info_end",
"Channel_info_start",
"Channel : Ti",
"Points : 0",
"Range : 0.000000 - 0.000000",
"Step : 0.010000",
"Channel_info_end",
"Channel_info_start",
"Channel : V ",
"Points : 0",
"Range : 0.000000 - 0.000000",
"Step : 0.010000",
"Channel_info_end",
"Channel_info_start",
"Channel : Cr",
"Points : 0",
"Range : 0.000000 - 0.000000",
"Step : 0.010000",
"Channel_info_end",
"Channel_info_start",
"Channel : Mn",
"Points : 0",
"Range : 0.000000 - 0.000000",
"Step : 0.010000",
"Channel_info_end",
"Channel_info_start",
"Channel : Fe",
"Points : 0",
"Range : 0.000000 - 0.000000",
"Step : 0.010000",
"Channel_info_end",
"Channel_info_start",
"Channel : Cu",
"Points : 0",
"Range : 0.000000 - 0.000000",
"Step : 0.010000",
"Channel_info_end",
"Channel_info_start",
"Channel : Zn",
"Points : 0",
"Range : 0.000000 - 0.000000",
"Step : 0.010000",
"Channel_info_end",
"Channel_info_start",
"Channel : Sr",
"Points : 0",
"Range : 0.000000 - 0.000000",
"Step : 0.010000",
"Channel_info_end",
"Channel_info_start",
"Channel : Pb",
"Points : 0",
"Range : 0.000000 - 0.000000",
"Step : 0.010000",
"Channel_info_end",
"",
"Qualitative Result",
"--------------------------------------------------------------------------------",
"Element :  P , Ca, Cr, Ru",
"",
"Peak List",
"--------------------------------------------------------------------------------",
"Channel               Line        keV     Net Int.(cps/uA)",
"--------------------------------------------------------------------------------",
"Na                    P Ka         2.01     0.023",
"                      CaKa         3.68     0.360",
"                      CaKb         4.00     0.040",
"                      CrKa         5.40    14.468",
"                      CrKb         5.94     1.843",
"                      ----         8.67     0.031",
"                      RuKa        19.20     0.141",
"                      ----        19.41     0.077",
"                      ----        20.04     0.060",
"--------------------------------------------------------------------------------",
"",
"Quantitative Result",
"--------------------------------------------------------------------------------",
"Analyte               Result             Std.Dev. Proc.-Calc. Line Intensity(cps/uA)",
"--------------------------------------------------------------------------------",
"====[No. 1 Layer]====< Layer1               >===============================",
"Layer1                   0.000 ug/cm2    -------- Flux       -------- --------",