File: inputs/edxCalibration/edx_raw/2010/junho/CsBr 31513.20100611013426.csv
"Sample    : CsBr 31513",
"Operator  : Luís",
"Comment  : cubatao-g-policarbonato",
"Group     : kerr2007ag180cal_lt",
"Date       : 2010-06-11 01:30:24",
"",
"Mesurement Condition",
"------------------------------------------------------------------------------------",
"Instrument : 700HS2   Atmosphere : Vac.   Collimator : 10(mm)   Spin : No",
"------------------------------------------------------------------------------------",
"Analyte               TG kV   uA      FI Acq.(keV)  Anal.(keV)  Time(sec)     DT(%)",
"------------------------------------------------------------------------------------",
"Na                    Rh 50  210-Auto Al  0 - 20    0.8 - 1.2   Live -  179   14",
"",
"<Profile>",
"Channel_info_start",
"Channel : Na",
"Points : 2048",
"Range : 0.000000 - 20.48",
"Step : 0.010000",
"Channel_info_end",
"0",
"0",
"0",
"0",
"0",
"34",
"34",
"27",
"21",
"22",
"24",
"18",
"23",
"16",
"26",
"29",
"30",
"25",
"46",
"52",
"119",
"582",
"476",
"156",
"41",
"35",
"39",
"21",
"53",
"67",
"34",
"29",
"27",
"26",
"10",
"34",
"93",
"47",
"29",
"28",
"40",
"59",
"51",
"34",
"25",
"38",
"37",
"35",
"30",
"39",
"51",
"128",
"571",
"835",
"470",
"238",
"105",
"161",
"195",
"410",
"2379",
"6714",
"4240",
"728",
"374",
"2042",
"4297",
"3143",
"1102",
"528",
"969",
"995",
"332",
"115",
"221",
"534",
"501",
"213",
"204",
"352",
"262",
"125",
"108",
"55",
"47",
"69",
"53",
"52",
"63",
"85",
"67",
"83",
"89",
"76",
"79",
"81",
"107",
"120",
"108",
"132",
"104",
"78",
"68",
"81",
"74",
"88",
"82",
"98",
"93",
"87",
"86",
"91",
"90",
"81",
"93",
"89",
"96",
"95",
"81",
"95",
"111",
"127",
"118",
"156",
"129",
"115",
"88",
"99",
"104",
"91",
"103",
"106",
"92",
"100",
"103",
"109",
"103",
"89",
"96",
"85",
"89",
"86",
"99",
"82",
"101",
"107",
"79",
"81",
"65",
"90",
"79",
"94",
"105",
"86",
"95",
"86",
"89",
"73",
"89",
"92",
"85",
"101",
"93",
"103",
"114",
"131",
"270",
"1225",
"4419",
"9757",
"11745",
"8866",
"3485",
"875",
"181",
"107",
"91",
"78",
"76",
"79",
"93",
"89",
"91",
"98",
"105",
"102",
"147",
"406",
"971",
"1743",
"1825",
"1231",
"639",
"281",
"161",
"66",
"54",
"63",
"56",
"53",
"65",
"63",
"67",
"60",
"62",
"67",
"78",
"63",
"64",
"56",
"51",
"55",
"63",
"54",
"68",
"72",
"75",
"61",
"49",
"57",
"62",
"47",
"52",
"54",
"59",
"65",
"49",
"48",
"49",
"62",
"51",
"55",
"56",
"50",
"44",
"51",
"62",
"64",
"39",
"52",
"56",
"55",
"50",
"55",
"34",
"59",
"44",
"56",
"48",
"56",
"54",
"55",
"52",
"59",
"53",
"46",
"52",
"42",
"53",
"52",
"56",
"51",
"63",
"78",
"75",
"69",
"98",
"88",
"116",
"125",
"177",
"230",
"249",
"295",
"293",
"297",
"255",
"193",
"161",
"147",
"104",
"68",
"73",
"99",
"113",
"163",
"180",
"232",
"204",
"116",
"74",
"40",
"52",
"32812",
"Channel_info_start",
"Channel : Mg",
"Points : 0",
"Range : 0.000000 - 0.000000",
"Step : 0.010000",
"Channel_info_end",
"Channel_info_start",
"Channel : Al",
"Points : 0",
"Range : 0.000000 - 0.000000",
"Step : 0.010000",
"Channel_info_end",
"Channel_info_start",
"Channel : Si",
"Points : 0",
"Range : 0.000000 - 0.000000",
"Step : 0.010000",
"Channel_info_end",
"Channel_info_start",
"Channel : P ",
"Points : 0",
"Range : 0.000000 - 0.000000",
"Step : 0.010000",
"Channel_info_end",
"Channel_info_start",
"Channel : S ",
"Points : 0",
"Range : 0.000000 - 0.000000",
"Step : 0.010000",
"Channel_info_end",
"Channel_info_start",
"Channel : Cl",
"Points : 0",
"Range : 0.000000 - 0.000000",
"Step : 0.010000",
"Channel_info_end",
"Channel_info_start",
"Channel : K ",
"Points : 0",
"Range : 0.000000 - 0.000000",
"Step : 0.010000",
"Channel_info_end",
"Channel_info_start",
"Channel : Ca",
"Points : 0",
"Range : 0.000000 - 0.000000",
"Step : 0.010000",
"Channel_info_end",
"Channel_info_start",
"Channel : Ti",
"Points : 0",
"Range : 0.000000 - 0.000000",
"Step : 0.010000",
"Channel_info_end",
"Channel_info_start",
"Channel : V ",
"Points : 0",
"Range : 0.000000 - 0.000000",
"Step : 0.010000",
"Channel_info_end",
"Channel_info_start",
"Channel : Cr",
"Points : 0",
"Range : 0.000000 - 0.000000",
"Step : 0.010000",
"Channel_info_end",
"Channel_info_start",
"Channel : Mn",
"Points : 0",
"Range : 0.000000 - 0.000000",
"Step : 0.010000",
"Channel_info_end",
"Channel_info_start",
"Channel : Fe",
"Points : 0",
"Range : 0.000000 - 0.000000",
"Step : 0.010000",
"Channel_info_end",
"Channel_info_start",
"Channel : Cu",
"Points : 0",
"Range : 0.000000 - 0.000000",
"Step : 0.010000",
"Channel_info_end",
"Channel_info_start",
"Channel : Zn",
"Points : 0",
"Range : 0.000000 - 0.000000",
"Step : 0.010000",
"Channel_info_end",
"Channel_info_start",
"Channel : Sr",
"Points : 0",
"Range : 0.000000 - 0.000000",
"Step : 0.010000",
"Channel_info_end",
"Channel_info_start",
"Channel : Pb",
"Points : 0",
"Range : 0.000000 - 0.000000",
"Step : 0.010000",
"Channel_info_end",
"",
"Qualitative Result",
"--------------------------------------------------------------------------------",
"Element :  Br, P , Cs, Ce, Rh",
"",
"Peak List",
"--------------------------------------------------------------------------------",
"Channel               Line        keV     Net Int.(cps/uA)",
"--------------------------------------------------------------------------------",
"Na                    BrLa         1.50     0.186",
"                      P Ka         2.01     0.019",
"                      CsLaESC      2.52     0.021",
"                      ----         3.68     0.292",
"                      CsLa         4.28     2.589",
"                      CsLb1        4.63     1.625",
"                      CsLb2        4.93     0.380",
"                      CsLg1        5.27     0.155",
"                      CeLb1        5.27     0.044",
"                      CsLg2        5.54     0.107",
"                      BrKa        11.88     6.243",
"                      BrKb        13.27     0.937",
"                      RhKaC       19.22     0.128",
"                      ----        19.44     0.058",
"                      RhKa        20.08     0.103",
"--------------------------------------------------------------------------------",
"",
"Quantitative Result",
"--------------------------------------------------------------------------------",
"Analyte               Result             Std.Dev. Proc.-Calc. Line Intensity(cps/uA)",
"--------------------------------------------------------------------------------",
"====[No. 1 Layer]====< Layer1               >===============================",
"Layer1                   0.000 ug/cm2    -------- Flux       -------- --------",