File: inputs/edxCalibration/edx_raw/2010/junho/CsBr 31513.20100525230115.csv
"Sample    : CsBr 31513",
"Operator  : luisf",
"Comment  : cubatao-g-policarbonato",
"Group     : kerr2007ag180cal_lt",
"Date       : 2010-05-25 22:57:12",
"",
"Mesurement Condition",
"------------------------------------------------------------------------------------",
"Instrument : 700HS2   Atmosphere : Vac.   Collimator : 10(mm)   Spin : No",
"------------------------------------------------------------------------------------",
"Analyte               TG kV   uA      FI Acq.(keV)  Anal.(keV)  Time(sec)     DT(%)",
"------------------------------------------------------------------------------------",
"Na                    Rh 50  210-Auto Al  0 - 20    0.8 - 1.2   Live -  178   14",
"",
"<Profile>",
"Channel_info_start",
"Channel : Na",
"Points : 2048",
"Range : 0.000000 - 20.48",
"Step : 0.010000",
"Channel_info_end",
"0",
"0",
"0",
"0",
"0",
"26",
"27",
"34",
"27",
"18",
"11",
"23",
"25",
"26",
"27",
"33",
"24",
"26",
"47",
"56",
"92",
"548",
"493",
"143",
"43",
"33",
"31",
"28",
"54",
"89",
"36",
"28",
"22",
"34",
"26",
"51",
"76",
"54",
"30",
"22",
"26",
"47",
"46",
"34",
"22",
"34",
"27",
"40",
"36",
"42",
"54",
"116",
"548",
"866",
"495",
"274",
"132",
"178",
"179",
"385",
"2317",
"6866",
"4238",
"817",
"350",
"2057",
"4225",
"3216",
"1099",
"501",
"908",
"1035",
"293",
"133",
"238",
"584",
"499",
"194",
"199",
"393",
"263",
"131",
"101",
"55",
"44",
"56",
"34",
"56",
"67",
"75",
"78",
"86",
"91",
"90",
"94",
"96",
"109",
"105",
"108",
"107",
"107",
"103",
"88",
"81",
"65",
"80",
"77",
"101",
"93",
"79",
"70",
"89",
"99",
"105",
"93",
"100",
"87",
"94",
"94",
"114",
"104",
"102",
"124",
"180",
"154",
"121",
"103",
"115",
"104",
"106",
"102",
"104",
"103",
"96",
"93",
"109",
"106",
"108",
"75",
"95",
"99",
"81",
"100",
"107",
"98",
"117",
"90",
"99",
"90",
"105",
"98",
"104",
"93",
"90",
"78",
"95",
"86",
"68",
"89",
"90",
"96",
"106",
"109",
"118",
"109",
"112",
"244",
"1100",
"4092",
"9510",
"11783",
"9115",
"3895",
"945",
"212",
"111",
"95",
"95",
"83",
"91",
"79",
"81",
"113",
"99",
"125",
"104",
"156",
"406",
"998",
"1665",
"1814",
"1310",
"675",
"301",
"169",
"88",
"63",
"57",
"62",
"79",
"68",
"56",
"66",
"55",
"59",
"60",
"55",
"59",
"50",
"72",
"47",
"56",
"54",
"59",
"55",
"53",
"46",
"69",
"52",
"64",
"53",
"46",
"43",
"56",
"48",
"44",
"55",
"62",
"60",
"51",
"68",
"70",
"65",
"57",
"49",
"62",
"50",
"60",
"47",
"54",
"49",
"46",
"40",
"54",
"44",
"39",
"46",
"43",
"48",
"42",
"46",
"56",
"49",
"44",
"47",
"52",
"49",
"51",
"56",
"63",
"62",
"69",
"52",
"47",
"63",
"48",
"64",
"82",
"104",
"126",
"164",
"226",
"247",
"273",
"272",
"302",
"262",
"244",
"160",
"124",
"101",
"91",
"72",
"80",
"111",
"142",
"184",
"213",
"183",
"112",
"80",
"55",
"31",
"32893",
"Channel_info_start",
"Channel : Mg",
"Points : 0",
"Range : 0.000000 - 0.000000",
"Step : 0.010000",
"Channel_info_end",
"Channel_info_start",
"Channel : Al",
"Points : 0",
"Range : 0.000000 - 0.000000",
"Step : 0.010000",
"Channel_info_end",
"Channel_info_start",
"Channel : Si",
"Points : 0",
"Range : 0.000000 - 0.000000",
"Step : 0.010000",
"Channel_info_end",
"Channel_info_start",
"Channel : P ",
"Points : 0",
"Range : 0.000000 - 0.000000",
"Step : 0.010000",
"Channel_info_end",
"Channel_info_start",
"Channel : S ",
"Points : 0",
"Range : 0.000000 - 0.000000",
"Step : 0.010000",
"Channel_info_end",
"Channel_info_start",
"Channel : Cl",
"Points : 0",
"Range : 0.000000 - 0.000000",
"Step : 0.010000",
"Channel_info_end",
"Channel_info_start",
"Channel : K ",
"Points : 0",
"Range : 0.000000 - 0.000000",
"Step : 0.010000",
"Channel_info_end",
"Channel_info_start",
"Channel : Ca",
"Points : 0",
"Range : 0.000000 - 0.000000",
"Step : 0.010000",
"Channel_info_end",
"Channel_info_start",
"Channel : Ti",
"Points : 0",
"Range : 0.000000 - 0.000000",
"Step : 0.010000",
"Channel_info_end",
"Channel_info_start",
"Channel : V ",
"Points : 0",
"Range : 0.000000 - 0.000000",
"Step : 0.010000",
"Channel_info_end",
"Channel_info_start",
"Channel : Cr",
"Points : 0",
"Range : 0.000000 - 0.000000",
"Step : 0.010000",
"Channel_info_end",
"Channel_info_start",
"Channel : Mn",
"Points : 0",
"Range : 0.000000 - 0.000000",
"Step : 0.010000",
"Channel_info_end",
"Channel_info_start",
"Channel : Fe",
"Points : 0",
"Range : 0.000000 - 0.000000",
"Step : 0.010000",
"Channel_info_end",
"Channel_info_start",
"Channel : Cu",
"Points : 0",
"Range : 0.000000 - 0.000000",
"Step : 0.010000",
"Channel_info_end",
"Channel_info_start",
"Channel : Zn",
"Points : 0",
"Range : 0.000000 - 0.000000",
"Step : 0.010000",
"Channel_info_end",
"Channel_info_start",
"Channel : Sr",
"Points : 0",
"Range : 0.000000 - 0.000000",
"Step : 0.010000",
"Channel_info_end",
"Channel_info_start",
"Channel : Pb",
"Points : 0",
"Range : 0.000000 - 0.000000",
"Step : 0.010000",
"Channel_info_end",
"",
"Qualitative Result",
"--------------------------------------------------------------------------------",
"Element :  Br, P , Cs, Ce",
"",
"Peak List",
"--------------------------------------------------------------------------------",
"Channel               Line        keV     Net Int.(cps/uA)",
"--------------------------------------------------------------------------------",
"Na                    BrLa         1.49     0.194",
"                      P Ka         2.00     0.021",
"                      CsLaESC      2.55     0.022",
"                      ----         3.70     0.296",
"                      CsLa         4.28     2.582",
"                      CsLb1        4.63     1.641",
"                      CsLb2        4.94     0.412",
"                      CsLg1        5.28     0.155",
"                      CeLb1        5.28     0.049",
"                      CsLg2        5.52     0.115",
"                      BrKa        11.88     6.185",
"                      BrKb        13.28     0.972",
"                      ----        19.24     0.131",
"                      ----        20.00     0.090",
"--------------------------------------------------------------------------------",
"",
"Quantitative Result",
"--------------------------------------------------------------------------------",
"Analyte               Result             Std.Dev. Proc.-Calc. Line Intensity(cps/uA)",
"--------------------------------------------------------------------------------",
"====[No. 1 Layer]====< Layer1               >===============================",
"Layer1                   0.000 ug/cm2    -------- Flux       -------- --------",