File: inputs/edxCalibration/edx_raw/2010/junho/Cu 31521.20100611011417.csv
"Sample    : Cu 31521",
"Operator  : Luís",
"Comment  : cubatao-g-policarbonato",
"Group     : kerr2007ag180cal_lt",
"Date       : 2010-06-11 01:10:15",
"",
"Mesurement Condition",
"------------------------------------------------------------------------------------",
"Instrument : 700HS2   Atmosphere : Vac.   Collimator : 10(mm)   Spin : No",
"------------------------------------------------------------------------------------",
"Analyte               TG kV   uA      FI Acq.(keV)  Anal.(keV)  Time(sec)     DT(%)",
"------------------------------------------------------------------------------------",
"Na                    Rh 50  152-Auto Al  0 - 20    0.8 - 1.2   Live -  179   15",
"",
"<Profile>",
"Channel_info_start",
"Channel : Na",
"Points : 2048",
"Range : 0.000000 - 20.48",
"Step : 0.010000",
"Channel_info_end",
"0",
"0",
"0",
"0",
"0",
"12",
"9",
"9",
"11",
"9",
"8",
"16",
"42",
"212",
"172",
"59",
"18",
"7",
"10",
"13",
"13",
"14",
"14",
"17",
"8",
"15",
"20",
"12",
"45",
"54",
"20",
"12",
"18",
"14",
"13",
"12",
"7",
"20",
"9",
"12",
"11",
"3",
"16",
"7",
"13",
"11",
"9",
"11",
"12",
"15",
"17",
"86",
"407",
"551",
"151",
"43",
"49",
"102",
"63",
"23",
"10",
"16",
"26",
"29",
"36",
"33",
"26",
"37",
"23",
"27",
"17",
"25",
"30",
"27",
"33",
"38",
"27",
"18",
"38",
"30",
"39",
"28",
"42",
"41",
"34",
"58",
"47",
"79",
"71",
"98",
"132",
"102",
"76",
"56",
"41",
"54",
"60",
"58",
"64",
"59",
"58",
"78",
"65",
"79",
"70",
"87",
"91",
"84",
"81",
"113",
"112",
"218",
"1100",
"8079",
"23414",
"30062",
"15082",
"3364",
"383",
"129",
"96",
"114",
"104",
"157",
"277",
"851",
"2418",
"4065",
"3062",
"897",
"201",
"83",
"53",
"52",
"50",
"71",
"71",
"56",
"63",
"50",
"54",
"55",
"59",
"59",
"51",
"46",
"49",
"54",
"58",
"56",
"43",
"41",
"35",
"59",
"54",
"53",
"48",
"48",
"59",
"63",
"36",
"43",
"38",
"41",
"56",
"49",
"47",
"35",
"48",
"42",
"38",
"41",
"40",
"39",
"43",
"45",
"46",
"45",
"47",
"42",
"39",
"55",
"42",
"48",
"54",
"45",
"29",
"55",
"34",
"45",
"50",
"42",
"45",
"29",
"42",
"40",
"33",
"36",
"40",
"42",
"40",
"39",
"42",
"35",
"39",
"31",
"37",
"47",
"29",
"26",
"31",
"42",
"37",
"30",
"45",
"45",
"33",
"36",
"31",
"30",
"42",
"25",
"36",
"37",
"49",
"31",
"31",
"31",
"72",
"88",
"84",
"74",
"43",
"34",
"26",
"37",
"34",
"28",
"46",
"36",
"34",
"34",
"58",
"43",
"37",
"31",
"43",
"63",
"55",
"54",
"48",
"48",
"31",
"41",
"27",
"37",
"34",
"30",
"26",
"25",
"42",
"38",
"40",
"31",
"48",
"54",
"47",
"56",
"78",
"117",
"136",
"162",
"163",
"222",
"232",
"176",
"185",
"157",
"130",
"78",
"71",
"60",
"68",
"46",
"56",
"92",
"102",
"117",
"91",
"63",
"33",
"25",
"23",
"15293",
"Channel_info_start",
"Channel : Mg",
"Points : 0",
"Range : 0.000000 - 0.000000",
"Step : 0.010000",
"Channel_info_end",
"Channel_info_start",
"Channel : Al",
"Points : 0",
"Range : 0.000000 - 0.000000",
"Step : 0.010000",
"Channel_info_end",
"Channel_info_start",
"Channel : Si",
"Points : 0",
"Range : 0.000000 - 0.000000",
"Step : 0.010000",
"Channel_info_end",
"Channel_info_start",
"Channel : P ",
"Points : 0",
"Range : 0.000000 - 0.000000",
"Step : 0.010000",
"Channel_info_end",
"Channel_info_start",
"Channel : S ",
"Points : 0",
"Range : 0.000000 - 0.000000",
"Step : 0.010000",
"Channel_info_end",
"Channel_info_start",
"Channel : Cl",
"Points : 0",
"Range : 0.000000 - 0.000000",
"Step : 0.010000",
"Channel_info_end",
"Channel_info_start",
"Channel : K ",
"Points : 0",
"Range : 0.000000 - 0.000000",
"Step : 0.010000",
"Channel_info_end",
"Channel_info_start",
"Channel : Ca",
"Points : 0",
"Range : 0.000000 - 0.000000",
"Step : 0.010000",
"Channel_info_end",
"Channel_info_start",
"Channel : Ti",
"Points : 0",
"Range : 0.000000 - 0.000000",
"Step : 0.010000",
"Channel_info_end",
"Channel_info_start",
"Channel : V ",
"Points : 0",
"Range : 0.000000 - 0.000000",
"Step : 0.010000",
"Channel_info_end",
"Channel_info_start",
"Channel : Cr",
"Points : 0",
"Range : 0.000000 - 0.000000",
"Step : 0.010000",
"Channel_info_end",
"Channel_info_start",
"Channel : Mn",
"Points : 0",
"Range : 0.000000 - 0.000000",
"Step : 0.010000",
"Channel_info_end",
"Channel_info_start",
"Channel : Fe",
"Points : 0",
"Range : 0.000000 - 0.000000",
"Step : 0.010000",
"Channel_info_end",
"Channel_info_start",
"Channel : Cu",
"Points : 0",
"Range : 0.000000 - 0.000000",
"Step : 0.010000",
"Channel_info_end",
"Channel_info_start",
"Channel : Zn",
"Points : 0",
"Range : 0.000000 - 0.000000",
"Step : 0.010000",
"Channel_info_end",
"Channel_info_start",
"Channel : Sr",
"Points : 0",
"Range : 0.000000 - 0.000000",
"Step : 0.010000",
"Channel_info_end",
"Channel_info_start",
"Channel : Pb",
"Points : 0",
"Range : 0.000000 - 0.000000",
"Step : 0.010000",
"Channel_info_end",
"",
"Qualitative Result",
"--------------------------------------------------------------------------------",
"Element :  Cu, P , Ca, Ru",
"",
"Peak List",
"--------------------------------------------------------------------------------",
"Channel               Line        keV     Net Int.(cps/uA)",
"--------------------------------------------------------------------------------",
"Na                    CuLa         0.94     0.095",
"                      P Ka         1.98     0.023",
"                      CaKa         3.68     0.287",
"                      CaKb         4.00     0.036",
"                      CuKaESC      6.29     0.050",
"                      CuKa         8.04    19.208",
"                      CuKb         8.88     2.576",
"                      CuKaSUM     16.03     0.043",
"                      RuKa        19.19     0.141",
"                      ----        19.44     0.057",
"                      ----        19.99     0.064",
"--------------------------------------------------------------------------------",
"",
"Quantitative Result",
"--------------------------------------------------------------------------------",
"Analyte               Result             Std.Dev. Proc.-Calc. Line Intensity(cps/uA)",
"--------------------------------------------------------------------------------",
"====[No. 1 Layer]====< Layer1               >===============================",
"Layer1                   0.000 ug/cm2    -------- Flux       -------- --------",