File: inputs/edxCalibration/edx_raw/2010/junho/DyF3 31517.20100626154339.csv
"Sample    : DyF3 31517",
"Operator  : luis",
"Comment  : cubatao-g-policarbonato",
"Group     : kerr2007ag180cal_lt",
"Date       : 2010-06-26 15:39:36",
"",
"Mesurement Condition",
"------------------------------------------------------------------------------------",
"Instrument : 700HS2   Atmosphere : Vac.   Collimator : 10(mm)   Spin : No",
"------------------------------------------------------------------------------------",
"Analyte               TG kV   uA      FI Acq.(keV)  Anal.(keV)  Time(sec)     DT(%)",
"------------------------------------------------------------------------------------",
"Na                    Rh 50  268-Auto Al  0 - 20    0.8 - 1.2   Live -  179   15",
"",
"<Profile>",
"Channel_info_start",
"Channel : Na",
"Points : 2048",
"Range : 0.000000 - 20.48",
"Step : 0.010000",
"Channel_info_end",
"0",
"0",
"0",
"0",
"0",
"18",
"14",
"21",
"17",
"27",
"17",
"14",
"21",
"35",
"93",
"97",
"41",
"80",
"519",
"1187",
"423",
"98",
"117",
"74",
"85",
"88",
"36",
"30",
"73",
"100",
"30",
"17",
"24",
"20",
"15",
"25",
"14",
"15",
"30",
"24",
"27",
"27",
"16",
"25",
"17",
"18",
"20",
"30",
"20",
"26",
"30",
"122",
"670",
"992",
"319",
"68",
"77",
"149",
"131",
"57",
"36",
"41",
"48",
"58",
"62",
"74",
"64",
"101",
"134",
"71",
"45",
"72",
"60",
"57",
"65",
"57",
"67",
"102",
"99",
"111",
"147",
"428",
"677",
"539",
"178",
"115",
"124",
"134",
"154",
"160",
"449",
"3131",
"10768",
"14440",
"6454",
"1293",
"236",
"148",
"161",
"186",
"215",
"635",
"3050",
"7681",
"7841",
"4270",
"1829",
"1012",
"1636",
"2425",
"1733",
"665",
"195",
"138",
"156",
"171",
"225",
"256",
"335",
"800",
"1353",
"1130",
"510",
"419",
"627",
"668",
"403",
"223",
"222",
"192",
"152",
"139",
"129",
"121",
"136",
"140",
"125",
"131",
"123",
"134",
"109",
"102",
"126",
"129",
"110",
"90",
"118",
"97",
"111",
"117",
"120",
"114",
"112",
"103",
"109",
"104",
"106",
"124",
"101",
"117",
"121",
"125",
"114",
"114",
"104",
"108",
"88",
"111",
"114",
"90",
"106",
"106",
"91",
"78",
"92",
"109",
"97",
"98",
"106",
"115",
"92",
"90",
"90",
"78",
"99",
"109",
"86",
"102",
"92",
"84",
"93",
"96",
"104",
"95",
"84",
"95",
"97",
"91",
"83",
"106",
"85",
"80",
"57",
"88",
"88",
"73",
"64",
"74",
"83",
"83",
"73",
"87",
"91",
"78",
"74",
"76",
"81",
"74",
"85",
"93",
"79",
"78",
"70",
"77",
"87",
"72",
"62",
"58",
"79",
"62",
"61",
"74",
"61",
"62",
"55",
"47",
"68",
"52",
"62",
"61",
"67",
"66",
"63",
"57",
"53",
"61",
"67",
"57",
"66",
"59",
"72",
"61",
"76",
"64",
"65",
"74",
"91",
"59",
"65",
"61",
"66",
"79",
"80",
"76",
"84",
"84",
"108",
"111",
"128",
"160",
"226",
"253",
"375",
"351",
"412",
"401",
"389",
"325",
"253",
"196",
"137",
"111",
"99",
"109",
"142",
"211",
"235",
"285",
"276",
"178",
"106",
"60",
"61",
"29605",
"Channel_info_start",
"Channel : Mg",
"Points : 0",
"Range : 0.000000 - 0.000000",
"Step : 0.010000",
"Channel_info_end",
"Channel_info_start",
"Channel : Al",
"Points : 0",
"Range : 0.000000 - 0.000000",
"Step : 0.010000",
"Channel_info_end",
"Channel_info_start",
"Channel : Si",
"Points : 0",
"Range : 0.000000 - 0.000000",
"Step : 0.010000",
"Channel_info_end",
"Channel_info_start",
"Channel : P ",
"Points : 0",
"Range : 0.000000 - 0.000000",
"Step : 0.010000",
"Channel_info_end",
"Channel_info_start",
"Channel : S ",
"Points : 0",
"Range : 0.000000 - 0.000000",
"Step : 0.010000",
"Channel_info_end",
"Channel_info_start",
"Channel : Cl",
"Points : 0",
"Range : 0.000000 - 0.000000",
"Step : 0.010000",
"Channel_info_end",
"Channel_info_start",
"Channel : K ",
"Points : 0",
"Range : 0.000000 - 0.000000",
"Step : 0.010000",
"Channel_info_end",
"Channel_info_start",
"Channel : Ca",
"Points : 0",
"Range : 0.000000 - 0.000000",
"Step : 0.010000",
"Channel_info_end",
"Channel_info_start",
"Channel : Ti",
"Points : 0",
"Range : 0.000000 - 0.000000",
"Step : 0.010000",
"Channel_info_end",
"Channel_info_start",
"Channel : V ",
"Points : 0",
"Range : 0.000000 - 0.000000",
"Step : 0.010000",
"Channel_info_end",
"Channel_info_start",
"Channel : Cr",
"Points : 0",
"Range : 0.000000 - 0.000000",
"Step : 0.010000",
"Channel_info_end",
"Channel_info_start",
"Channel : Mn",
"Points : 0",
"Range : 0.000000 - 0.000000",
"Step : 0.010000",
"Channel_info_end",
"Channel_info_start",
"Channel : Fe",
"Points : 0",
"Range : 0.000000 - 0.000000",
"Step : 0.010000",
"Channel_info_end",
"Channel_info_start",
"Channel : Cu",
"Points : 0",
"Range : 0.000000 - 0.000000",
"Step : 0.010000",
"Channel_info_end",
"Channel_info_start",
"Channel : Zn",
"Points : 0",
"Range : 0.000000 - 0.000000",
"Step : 0.010000",
"Channel_info_end",
"Channel_info_start",
"Channel : Sr",
"Points : 0",
"Range : 0.000000 - 0.000000",
"Step : 0.010000",
"Channel_info_end",
"Channel_info_start",
"Channel : Pb",
"Points : 0",
"Range : 0.000000 - 0.000000",
"Step : 0.010000",
"Channel_info_end",
"",
"Qualitative Result",
"--------------------------------------------------------------------------------",
"Element :  Na, Dy, Yb, Si, P , Ca, Ru",
"",
"Peak List",
"--------------------------------------------------------------------------------",
"Channel               Line        keV     Net Int.(cps/uA)",
"--------------------------------------------------------------------------------",
"Na                    NaKa         1.01     0.020",
"                      DyMa         1.32     0.261",
"                      YbMa         1.54     0.019",
"                      SiKa         1.70     0.017",
"                      P Ka         2.02     0.018",
"                      CaKa         3.70     0.283",
"                      CaKb         4.01     0.038",
"                      DyLaESC      4.72     0.020",
"                      DyLL         5.76     0.205",
"                      DyLa         6.49     4.859",
"                      DyLb1        7.25     2.906",
"                      DyLb2        7.64     0.803",
"                      DyLg1        8.40     0.340",
"                      YbLb1        8.40     0.087",
"                      DyLg2        8.72     0.180",
"                      RuKa        19.32     0.121",
"--------------------------------------------------------------------------------",
"",
"Quantitative Result",
"--------------------------------------------------------------------------------",
"Analyte               Result             Std.Dev. Proc.-Calc. Line Intensity(cps/uA)",
"--------------------------------------------------------------------------------",
"====[No. 1 Layer]====< Layer1               >===============================",
"Layer1                  19.159 ug/cm2    -------- Flux       -------- --------",
"Na                      19.159 ug/cm2    -------- ********** -------- --------",