File: inputs/edxCalibration/edx_raw/2010/junho/Fe 31500.20100525220154.csv
"Sample    : Fe 31500",
"Operator  : luisf",
"Comment  : cubatao-g-policarbonato",
"Group     : kerr2007ag180cal_lt",
"Date       : 2010-05-25 21:57:53",
"",
"Mesurement Condition",
"------------------------------------------------------------------------------------",
"Instrument : 700HS2   Atmosphere : Vac.   Collimator : 10(mm)   Spin : No",
"------------------------------------------------------------------------------------",
"Analyte               TG kV   uA      FI Acq.(keV)  Anal.(keV)  Time(sec)     DT(%)",
"------------------------------------------------------------------------------------",
"Na                    Rh 50  168-Auto Al  0 - 20    0.8 - 1.2   Live -  179   14",
"",
"<Profile>",
"Channel_info_start",
"Channel : Na",
"Points : 2048",
"Range : 0.000000 - 20.48",
"Step : 0.010000",
"Channel_info_end",
"0",
"0",
"0",
"0",
"0",
"11",
"9",
"9",
"11",
"12",
"15",
"32",
"12",
"9",
"13",
"8",
"7",
"10",
"14",
"8",
"17",
"13",
"11",
"14",
"17",
"17",
"18",
"16",
"55",
"58",
"22",
"17",
"9",
"12",
"11",
"12",
"10",
"10",
"17",
"16",
"11",
"23",
"20",
"15",
"15",
"10",
"8",
"14",
"8",
"12",
"20",
"81",
"435",
"627",
"194",
"38",
"58",
"99",
"78",
"34",
"20",
"21",
"23",
"36",
"41",
"67",
"162",
"139",
"75",
"39",
"42",
"40",
"43",
"38",
"46",
"73",
"63",
"78",
"65",
"68",
"67",
"56",
"72",
"66",
"84",
"119",
"97",
"149",
"227",
"1748",
"11793",
"31729",
"26562",
"7536",
"808",
"173",
"147",
"148",
"300",
"1165",
"3365",
"4061",
"1947",
"401",
"87",
"55",
"62",
"52",
"48",
"55",
"45",
"55",
"63",
"68",
"73",
"78",
"56",
"68",
"63",
"51",
"73",
"71",
"64",
"105",
"106",
"77",
"71",
"54",
"71",
"58",
"79",
"48",
"53",
"60",
"32",
"55",
"56",
"58",
"58",
"65",
"63",
"65",
"60",
"49",
"63",
"79",
"70",
"55",
"49",
"46",
"71",
"61",
"67",
"71",
"53",
"41",
"58",
"54",
"66",
"56",
"55",
"50",
"50",
"60",
"59",
"45",
"48",
"60",
"64",
"63",
"52",
"47",
"50",
"39",
"41",
"47",
"61",
"51",
"60",
"66",
"61",
"71",
"85",
"83",
"73",
"56",
"46",
"58",
"61",
"42",
"42",
"58",
"56",
"59",
"49",
"50",
"59",
"63",
"46",
"47",
"52",
"43",
"42",
"54",
"36",
"32",
"43",
"35",
"51",
"51",
"42",
"40",
"46",
"42",
"42",
"53",
"43",
"34",
"40",
"35",
"53",
"49",
"36",
"48",
"46",
"37",
"36",
"33",
"33",
"36",
"45",
"38",
"35",
"25",
"37",
"36",
"42",
"30",
"33",
"43",
"36",
"38",
"33",
"34",
"32",
"39",
"39",
"27",
"35",
"35",
"37",
"39",
"24",
"48",
"35",
"33",
"43",
"30",
"32",
"46",
"35",
"41",
"51",
"50",
"41",
"45",
"58",
"78",
"89",
"111",
"153",
"202",
"202",
"234",
"260",
"229",
"191",
"179",
"131",
"108",
"71",
"60",
"60",
"62",
"77",
"99",
"121",
"111",
"114",
"62",
"30",
"47",
"36",
"16921",
"Channel_info_start",
"Channel : Mg",
"Points : 0",
"Range : 0.000000 - 0.000000",
"Step : 0.010000",
"Channel_info_end",
"Channel_info_start",
"Channel : Al",
"Points : 0",
"Range : 0.000000 - 0.000000",
"Step : 0.010000",
"Channel_info_end",
"Channel_info_start",
"Channel : Si",
"Points : 0",
"Range : 0.000000 - 0.000000",
"Step : 0.010000",
"Channel_info_end",
"Channel_info_start",
"Channel : P ",
"Points : 0",
"Range : 0.000000 - 0.000000",
"Step : 0.010000",
"Channel_info_end",
"Channel_info_start",
"Channel : S ",
"Points : 0",
"Range : 0.000000 - 0.000000",
"Step : 0.010000",
"Channel_info_end",
"Channel_info_start",
"Channel : Cl",
"Points : 0",
"Range : 0.000000 - 0.000000",
"Step : 0.010000",
"Channel_info_end",
"Channel_info_start",
"Channel : K ",
"Points : 0",
"Range : 0.000000 - 0.000000",
"Step : 0.010000",
"Channel_info_end",
"Channel_info_start",
"Channel : Ca",
"Points : 0",
"Range : 0.000000 - 0.000000",
"Step : 0.010000",
"Channel_info_end",
"Channel_info_start",
"Channel : Ti",
"Points : 0",
"Range : 0.000000 - 0.000000",
"Step : 0.010000",
"Channel_info_end",
"Channel_info_start",
"Channel : V ",
"Points : 0",
"Range : 0.000000 - 0.000000",
"Step : 0.010000",
"Channel_info_end",
"Channel_info_start",
"Channel : Cr",
"Points : 0",
"Range : 0.000000 - 0.000000",
"Step : 0.010000",
"Channel_info_end",
"Channel_info_start",
"Channel : Mn",
"Points : 0",
"Range : 0.000000 - 0.000000",
"Step : 0.010000",
"Channel_info_end",
"Channel_info_start",
"Channel : Fe",
"Points : 0",
"Range : 0.000000 - 0.000000",
"Step : 0.010000",
"Channel_info_end",
"Channel_info_start",
"Channel : Cu",
"Points : 0",
"Range : 0.000000 - 0.000000",
"Step : 0.010000",
"Channel_info_end",
"Channel_info_start",
"Channel : Zn",
"Points : 0",
"Range : 0.000000 - 0.000000",
"Step : 0.010000",
"Channel_info_end",
"Channel_info_start",
"Channel : Sr",
"Points : 0",
"Range : 0.000000 - 0.000000",
"Step : 0.010000",
"Channel_info_end",
"Channel_info_start",
"Channel : Pb",
"Points : 0",
"Range : 0.000000 - 0.000000",
"Step : 0.010000",
"Channel_info_end",
"",
"Qualitative Result",
"--------------------------------------------------------------------------------",
"Element :  P , Ca, Fe, Rh",
"",
"Peak List",
"--------------------------------------------------------------------------------",
"Channel               Line        keV     Net Int.(cps/uA)",
"--------------------------------------------------------------------------------",
"Na                    P Ka         2.00     0.022",
"                      CaKa         3.68     0.311",
"                      CaKb         4.00     0.044",
"                      FeKaESC      4.64     0.064",
"                      FeKa         6.40    18.246",
"                      FeKb         7.04     2.392",
"                      RhKaC       19.16     0.127",
"                      ----        19.39     0.085",
"                      RhKa        20.05     0.065",
"--------------------------------------------------------------------------------",
"",
"Quantitative Result",
"--------------------------------------------------------------------------------",
"Analyte               Result             Std.Dev. Proc.-Calc. Line Intensity(cps/uA)",
"--------------------------------------------------------------------------------",
"====[No. 1 Layer]====< Layer1               >===============================",
"Layer1                   0.000 ug/cm2    -------- Flux       -------- --------",