File: inputs/edxCalibration/edx_raw/2010/junho/GaAs 31503.20100525222207.csv
"Sample    : GaAs 31503",
"Operator  : luisf",
"Comment  : cubatao-g-policarbonato",
"Group     : kerr2007ag180cal_lt",
"Date       : 2010-05-25 22:18:02",
"",
"Mesurement Condition",
"------------------------------------------------------------------------------------",
"Instrument : 700HS2   Atmosphere : Vac.   Collimator : 10(mm)   Spin : No",
"------------------------------------------------------------------------------------",
"Analyte               TG kV   uA      FI Acq.(keV)  Anal.(keV)  Time(sec)     DT(%)",
"------------------------------------------------------------------------------------",
"Na                    Rh 50  152-Auto Al  0 - 20    0.8 - 1.2   Live -  179   15",
"",
"<Profile>",
"Channel_info_start",
"Channel : Na",
"Points : 2048",
"Range : 0.000000 - 20.48",
"Step : 0.010000",
"Channel_info_end",
"0",
"0",
"0",
"0",
"1",
"24",
"15",
"28",
"15",
"10",
"18",
"15",
"14",
"18",
"20",
"84",
"195",
"149",
"605",
"711",
"187",
"36",
"21",
"15",
"24",
"22",
"11",
"14",
"53",
"55",
"13",
"13",
"8",
"10",
"13",
"14",
"10",
"10",
"4",
"12",
"11",
"3",
"9",
"10",
"4",
"10",
"11",
"12",
"14",
"4",
"13",
"71",
"439",
"545",
"153",
"23",
"47",
"77",
"56",
"27",
"13",
"25",
"30",
"29",
"35",
"34",
"43",
"40",
"28",
"33",
"14",
"21",
"18",
"29",
"21",
"30",
"29",
"30",
"37",
"37",
"34",
"36",
"37",
"31",
"42",
"48",
"49",
"51",
"51",
"65",
"64",
"83",
"54",
"46",
"48",
"65",
"52",
"75",
"49",
"68",
"62",
"62",
"63",
"69",
"75",
"60",
"76",
"100",
"83",
"55",
"58",
"63",
"75",
"79",
"87",
"84",
"87",
"75",
"63",
"88",
"76",
"84",
"77",
"123",
"116",
"125",
"105",
"80",
"114",
"320",
"1518",
"4804",
"6498",
"4285",
"1327",
"237",
"85",
"101",
"62",
"74",
"90",
"104",
"92",
"119",
"199",
"503",
"928",
"1353",
"3663",
"11051",
"17991",
"16907",
"7552",
"1900",
"307",
"91",
"71",
"81",
"64",
"78",
"80",
"66",
"96",
"124",
"198",
"636",
"1678",
"2759",
"2474",
"1353",
"434",
"165",
"68",
"42",
"46",
"50",
"46",
"41",
"40",
"35",
"58",
"54",
"48",
"55",
"52",
"54",
"41",
"45",
"46",
"52",
"33",
"36",
"46",
"41",
"37",
"39",
"40",
"40",
"45",
"47",
"41",
"51",
"40",
"38",
"39",
"48",
"46",
"41",
"40",
"49",
"34",
"47",
"31",
"28",
"35",
"50",
"37",
"30",
"38",
"43",
"41",
"35",
"39",
"33",
"42",
"36",
"41",
"54",
"29",
"35",
"26",
"47",
"36",
"35",
"29",
"40",
"30",
"31",
"24",
"39",
"28",
"37",
"24",
"34",
"41",
"29",
"38",
"29",
"31",
"27",
"33",
"30",
"28",
"39",
"27",
"46",
"45",
"33",
"43",
"37",
"52",
"35",
"31",
"38",
"50",
"43",
"52",
"52",
"86",
"98",
"127",
"145",
"191",
"202",
"230",
"217",
"180",
"167",
"130",
"128",
"91",
"81",
"55",
"73",
"69",
"93",
"116",
"101",
"86",
"63",
"41",
"31",
"35",
"16935",
"Channel_info_start",
"Channel : Mg",
"Points : 0",
"Range : 0.000000 - 0.000000",
"Step : 0.010000",
"Channel_info_end",
"Channel_info_start",
"Channel : Al",
"Points : 0",
"Range : 0.000000 - 0.000000",
"Step : 0.010000",
"Channel_info_end",
"Channel_info_start",
"Channel : Si",
"Points : 0",
"Range : 0.000000 - 0.000000",
"Step : 0.010000",
"Channel_info_end",
"Channel_info_start",
"Channel : P ",
"Points : 0",
"Range : 0.000000 - 0.000000",
"Step : 0.010000",
"Channel_info_end",
"Channel_info_start",
"Channel : S ",
"Points : 0",
"Range : 0.000000 - 0.000000",
"Step : 0.010000",
"Channel_info_end",
"Channel_info_start",
"Channel : Cl",
"Points : 0",
"Range : 0.000000 - 0.000000",
"Step : 0.010000",
"Channel_info_end",
"Channel_info_start",
"Channel : K ",
"Points : 0",
"Range : 0.000000 - 0.000000",
"Step : 0.010000",
"Channel_info_end",
"Channel_info_start",
"Channel : Ca",
"Points : 0",
"Range : 0.000000 - 0.000000",
"Step : 0.010000",
"Channel_info_end",
"Channel_info_start",
"Channel : Ti",
"Points : 0",
"Range : 0.000000 - 0.000000",
"Step : 0.010000",
"Channel_info_end",
"Channel_info_start",
"Channel : V ",
"Points : 0",
"Range : 0.000000 - 0.000000",
"Step : 0.010000",
"Channel_info_end",
"Channel_info_start",
"Channel : Cr",
"Points : 0",
"Range : 0.000000 - 0.000000",
"Step : 0.010000",
"Channel_info_end",
"Channel_info_start",
"Channel : Mn",
"Points : 0",
"Range : 0.000000 - 0.000000",
"Step : 0.010000",
"Channel_info_end",
"Channel_info_start",
"Channel : Fe",
"Points : 0",
"Range : 0.000000 - 0.000000",
"Step : 0.010000",
"Channel_info_end",
"Channel_info_start",
"Channel : Cu",
"Points : 0",
"Range : 0.000000 - 0.000000",
"Step : 0.010000",
"Channel_info_end",
"Channel_info_start",
"Channel : Zn",
"Points : 0",
"Range : 0.000000 - 0.000000",
"Step : 0.010000",
"Channel_info_end",
"Channel_info_start",
"Channel : Sr",
"Points : 0",
"Range : 0.000000 - 0.000000",
"Step : 0.010000",
"Channel_info_end",
"Channel_info_start",
"Channel : Pb",
"Points : 0",
"Range : 0.000000 - 0.000000",
"Step : 0.010000",
"Channel_info_end",
"",
"Qualitative Result",
"--------------------------------------------------------------------------------",
"Element :  Ga, As, Ir, Ca, Rh",
"",
"Peak List",
"--------------------------------------------------------------------------------",
"Channel               Line        keV     Net Int.(cps/uA)",
"--------------------------------------------------------------------------------",
"Na                    GaLa         1.11     0.066",
"                      AsLa         1.30     0.346",
"                      IrMa         2.01     0.018",
"                      CaKa         3.68     0.309",
"                      CaKb         4.02     0.037",
"                      GaKa         9.24     2.926",
"                      IrLa         9.24     1.336",
"                      GaKb        10.20     0.439",
"                      AsKa        10.52    13.125",
"                      AsKb        11.72     1.930",
"                      RhKaC       19.18     0.132",
"                      RhKa        20.05     0.065",
"--------------------------------------------------------------------------------",
"",
"Quantitative Result",
"--------------------------------------------------------------------------------",
"Analyte               Result             Std.Dev. Proc.-Calc. Line Intensity(cps/uA)",
"--------------------------------------------------------------------------------",
"====[No. 1 Layer]====< Layer1               >===============================",
"Layer1                   0.000 ug/cm2    -------- Flux       -------- --------",