File: inputs/edxCalibration/edx_raw/2010/junho/GaAs 15758.20100525221803.csv
"Sample    : GaAs 15758",
"Operator  : luisf",
"Comment  : cubatao-g-policarbonato",
"Group     : kerr2007ag180cal_lt",
"Date       : 2010-05-25 22:13:59",
"",
"Mesurement Condition",
"------------------------------------------------------------------------------------",
"Instrument : 700HS2   Atmosphere : Vac.   Collimator : 10(mm)   Spin : No",
"------------------------------------------------------------------------------------",
"Analyte               TG kV   uA      FI Acq.(keV)  Anal.(keV)  Time(sec)     DT(%)",
"------------------------------------------------------------------------------------",
"Na                    Rh 50  152-Auto Al  0 - 20    0.8 - 1.2   Live -  179   15",
"",
"<Profile>",
"Channel_info_start",
"Channel : Na",
"Points : 2048",
"Range : 0.000000 - 20.48",
"Step : 0.010000",
"Channel_info_end",
"0",
"0",
"0",
"0",
"1",
"20",
"21",
"23",
"22",
"17",
"10",
"15",
"15",
"11",
"32",
"91",
"188",
"141",
"646",
"731",
"186",
"34",
"18",
"10",
"9",
"21",
"7",
"7",
"25",
"35",
"20",
"11",
"9",
"13",
"10",
"5",
"7",
"12",
"8",
"16",
"8",
"12",
"14",
"10",
"5",
"13",
"4",
"14",
"11",
"14",
"13",
"71",
"254",
"335",
"103",
"46",
"35",
"61",
"48",
"18",
"22",
"17",
"26",
"21",
"42",
"28",
"34",
"34",
"46",
"23",
"39",
"17",
"30",
"27",
"26",
"24",
"25",
"39",
"22",
"38",
"45",
"39",
"36",
"50",
"50",
"50",
"42",
"58",
"50",
"53",
"57",
"61",
"97",
"71",
"55",
"60",
"72",
"59",
"67",
"73",
"69",
"79",
"72",
"74",
"76",
"66",
"74",
"98",
"86",
"88",
"87",
"65",
"73",
"97",
"80",
"114",
"82",
"76",
"61",
"70",
"74",
"90",
"95",
"124",
"105",
"92",
"121",
"79",
"109",
"284",
"1355",
"4204",
"5588",
"3698",
"1099",
"235",
"87",
"65",
"82",
"83",
"94",
"96",
"83",
"103",
"194",
"462",
"804",
"1320",
"3803",
"11865",
"19522",
"18163",
"8229",
"1953",
"303",
"107",
"74",
"66",
"67",
"79",
"121",
"87",
"98",
"122",
"212",
"706",
"1787",
"2888",
"2625",
"1455",
"519",
"182",
"89",
"59",
"51",
"52",
"51",
"46",
"33",
"46",
"45",
"51",
"41",
"47",
"51",
"45",
"42",
"54",
"50",
"43",
"48",
"53",
"49",
"50",
"45",
"51",
"45",
"38",
"39",
"45",
"54",
"49",
"41",
"62",
"48",
"33",
"24",
"50",
"50",
"59",
"39",
"47",
"43",
"34",
"38",
"43",
"43",
"47",
"37",
"43",
"33",
"38",
"32",
"43",
"47",
"39",
"32",
"37",
"38",
"46",
"38",
"45",
"45",
"40",
"43",
"30",
"43",
"34",
"30",
"27",
"41",
"26",
"35",
"39",
"41",
"39",
"30",
"36",
"47",
"36",
"39",
"34",
"36",
"32",
"27",
"26",
"38",
"36",
"34",
"34",
"38",
"45",
"48",
"47",
"45",
"61",
"54",
"69",
"84",
"107",
"123",
"172",
"222",
"204",
"261",
"250",
"224",
"177",
"137",
"116",
"83",
"71",
"80",
"76",
"78",
"109",
"112",
"134",
"97",
"72",
"49",
"36",
"38",
"17975",
"Channel_info_start",
"Channel : Mg",
"Points : 0",
"Range : 0.000000 - 0.000000",
"Step : 0.010000",
"Channel_info_end",
"Channel_info_start",
"Channel : Al",
"Points : 0",
"Range : 0.000000 - 0.000000",
"Step : 0.010000",
"Channel_info_end",
"Channel_info_start",
"Channel : Si",
"Points : 0",
"Range : 0.000000 - 0.000000",
"Step : 0.010000",
"Channel_info_end",
"Channel_info_start",
"Channel : P ",
"Points : 0",
"Range : 0.000000 - 0.000000",
"Step : 0.010000",
"Channel_info_end",
"Channel_info_start",
"Channel : S ",
"Points : 0",
"Range : 0.000000 - 0.000000",
"Step : 0.010000",
"Channel_info_end",
"Channel_info_start",
"Channel : Cl",
"Points : 0",
"Range : 0.000000 - 0.000000",
"Step : 0.010000",
"Channel_info_end",
"Channel_info_start",
"Channel : K ",
"Points : 0",
"Range : 0.000000 - 0.000000",
"Step : 0.010000",
"Channel_info_end",
"Channel_info_start",
"Channel : Ca",
"Points : 0",
"Range : 0.000000 - 0.000000",
"Step : 0.010000",
"Channel_info_end",
"Channel_info_start",
"Channel : Ti",
"Points : 0",
"Range : 0.000000 - 0.000000",
"Step : 0.010000",
"Channel_info_end",
"Channel_info_start",
"Channel : V ",
"Points : 0",
"Range : 0.000000 - 0.000000",
"Step : 0.010000",
"Channel_info_end",
"Channel_info_start",
"Channel : Cr",
"Points : 0",
"Range : 0.000000 - 0.000000",
"Step : 0.010000",
"Channel_info_end",
"Channel_info_start",
"Channel : Mn",
"Points : 0",
"Range : 0.000000 - 0.000000",
"Step : 0.010000",
"Channel_info_end",
"Channel_info_start",
"Channel : Fe",
"Points : 0",
"Range : 0.000000 - 0.000000",
"Step : 0.010000",
"Channel_info_end",
"Channel_info_start",
"Channel : Cu",
"Points : 0",
"Range : 0.000000 - 0.000000",
"Step : 0.010000",
"Channel_info_end",
"Channel_info_start",
"Channel : Zn",
"Points : 0",
"Range : 0.000000 - 0.000000",
"Step : 0.010000",
"Channel_info_end",
"Channel_info_start",
"Channel : Sr",
"Points : 0",
"Range : 0.000000 - 0.000000",
"Step : 0.010000",
"Channel_info_end",
"Channel_info_start",
"Channel : Pb",
"Points : 0",
"Range : 0.000000 - 0.000000",
"Step : 0.010000",
"Channel_info_end",
"",
"Qualitative Result",
"--------------------------------------------------------------------------------",
"Element :  Ga, As, P , Ca, Ru",
"",
"Peak List",
"--------------------------------------------------------------------------------",
"Channel               Line        keV     Net Int.(cps/uA)",
"--------------------------------------------------------------------------------",
"Na                    GaLa         1.11     0.070",
"                      AsLa         1.30     0.364",
"                      P Ka         2.00     0.011",
"                      CaKa         3.69     0.168",
"                      CaKb         4.02     0.022",
"                      GaKa         9.24     3.640",
"                      AsKa        10.52    14.112",
"                      AsKb        11.72     2.036",
"                      RuKa        19.16     0.137",
"                      ----        19.41     0.060",
"                      ----        19.97     0.054",
"--------------------------------------------------------------------------------",
"",
"Quantitative Result",
"--------------------------------------------------------------------------------",
"Analyte               Result             Std.Dev. Proc.-Calc. Line Intensity(cps/uA)",
"--------------------------------------------------------------------------------",
"====[No. 1 Layer]====< Layer1               >===============================",
"Layer1                   0.000 ug/cm2    -------- Flux       -------- --------",