File: inputs/edxCalibration/edx_raw/2010/junho/GaP 31502.20100525203214.csv
"Sample    : GaP 31502",
"Operator  : thiago",
"Comment  : cubatao-g-policarbonato",
"Group     : kerr2007ag180cal_lt",
"Date       : 2010-05-25 20:28:11",
"",
"Mesurement Condition",
"------------------------------------------------------------------------------------",
"Instrument : 700HS2   Atmosphere : Vac.   Collimator : 10(mm)   Spin : No",
"------------------------------------------------------------------------------------",
"Analyte               TG kV   uA      FI Acq.(keV)  Anal.(keV)  Time(sec)     DT(%)",
"------------------------------------------------------------------------------------",
"Na                    Rh 50  187-Auto Al  0 - 20    0.8 - 1.2   Live -  179   15",
"",
"<Profile>",
"Channel_info_start",
"Channel : Na",
"Points : 2048",
"Range : 0.000000 - 20.48",
"Step : 0.010000",
"Channel_info_end",
"0",
"0",
"0",
"0",
"0",
"27",
"19",
"20",
"15",
"13",
"13",
"21",
"16",
"33",
"58",
"235",
"586",
"254",
"44",
"22",
"17",
"17",
"15",
"13",
"36",
"30",
"37",
"68",
"399",
"725",
"164",
"56",
"12",
"9",
"14",
"12",
"7",
"10",
"13",
"11",
"19",
"17",
"12",
"22",
"12",
"13",
"8",
"21",
"14",
"19",
"26",
"98",
"467",
"706",
"198",
"53",
"54",
"100",
"78",
"26",
"24",
"23",
"33",
"46",
"45",
"49",
"40",
"39",
"27",
"38",
"38",
"38",
"32",
"41",
"33",
"38",
"33",
"36",
"27",
"47",
"34",
"49",
"48",
"49",
"42",
"62",
"50",
"53",
"58",
"58",
"74",
"90",
"86",
"78",
"74",
"52",
"72",
"74",
"78",
"86",
"81",
"78",
"62",
"82",
"85",
"71",
"131",
"125",
"97",
"96",
"74",
"72",
"75",
"127",
"110",
"127",
"105",
"100",
"86",
"63",
"91",
"101",
"100",
"143",
"146",
"119",
"113",
"137",
"233",
"1168",
"6608",
"20640",
"27113",
"17428",
"4957",
"851",
"170",
"90",
"114",
"90",
"113",
"142",
"149",
"229",
"601",
"1879",
"3393",
"3515",
"1816",
"494",
"124",
"74",
"65",
"69",
"69",
"70",
"74",
"58",
"61",
"60",
"64",
"56",
"57",
"74",
"72",
"58",
"65",
"60",
"68",
"59",
"57",
"62",
"62",
"54",
"47",
"58",
"66",
"60",
"62",
"70",
"50",
"46",
"71",
"62",
"53",
"57",
"53",
"58",
"58",
"46",
"49",
"53",
"51",
"50",
"56",
"54",
"45",
"61",
"50",
"48",
"48",
"49",
"52",
"59",
"48",
"45",
"39",
"42",
"56",
"38",
"39",
"49",
"61",
"56",
"41",
"44",
"50",
"51",
"41",
"35",
"38",
"47",
"36",
"42",
"58",
"49",
"41",
"48",
"38",
"42",
"35",
"35",
"53",
"47",
"39",
"44",
"36",
"38",
"37",
"39",
"28",
"30",
"41",
"36",
"30",
"30",
"47",
"39",
"53",
"32",
"46",
"39",
"40",
"39",
"41",
"45",
"53",
"42",
"46",
"48",
"45",
"46",
"74",
"97",
"90",
"80",
"72",
"94",
"115",
"118",
"134",
"179",
"243",
"264",
"254",
"259",
"240",
"219",
"163",
"125",
"111",
"73",
"60",
"63",
"62",
"94",
"122",
"145",
"154",
"82",
"45",
"42",
"41",
"19272",
"Channel_info_start",
"Channel : Mg",
"Points : 0",
"Range : 0.000000 - 0.000000",
"Step : 0.010000",
"Channel_info_end",
"Channel_info_start",
"Channel : Al",
"Points : 0",
"Range : 0.000000 - 0.000000",
"Step : 0.010000",
"Channel_info_end",
"Channel_info_start",
"Channel : Si",
"Points : 0",
"Range : 0.000000 - 0.000000",
"Step : 0.010000",
"Channel_info_end",
"Channel_info_start",
"Channel : P ",
"Points : 0",
"Range : 0.000000 - 0.000000",
"Step : 0.010000",
"Channel_info_end",
"Channel_info_start",
"Channel : S ",
"Points : 0",
"Range : 0.000000 - 0.000000",
"Step : 0.010000",
"Channel_info_end",
"Channel_info_start",
"Channel : Cl",
"Points : 0",
"Range : 0.000000 - 0.000000",
"Step : 0.010000",
"Channel_info_end",
"Channel_info_start",
"Channel : K ",
"Points : 0",
"Range : 0.000000 - 0.000000",
"Step : 0.010000",
"Channel_info_end",
"Channel_info_start",
"Channel : Ca",
"Points : 0",
"Range : 0.000000 - 0.000000",
"Step : 0.010000",
"Channel_info_end",
"Channel_info_start",
"Channel : Ti",
"Points : 0",
"Range : 0.000000 - 0.000000",
"Step : 0.010000",
"Channel_info_end",
"Channel_info_start",
"Channel : V ",
"Points : 0",
"Range : 0.000000 - 0.000000",
"Step : 0.010000",
"Channel_info_end",
"Channel_info_start",
"Channel : Cr",
"Points : 0",
"Range : 0.000000 - 0.000000",
"Step : 0.010000",
"Channel_info_end",
"Channel_info_start",
"Channel : Mn",
"Points : 0",
"Range : 0.000000 - 0.000000",
"Step : 0.010000",
"Channel_info_end",
"Channel_info_start",
"Channel : Fe",
"Points : 0",
"Range : 0.000000 - 0.000000",
"Step : 0.010000",
"Channel_info_end",
"Channel_info_start",
"Channel : Cu",
"Points : 0",
"Range : 0.000000 - 0.000000",
"Step : 0.010000",
"Channel_info_end",
"Channel_info_start",
"Channel : Zn",
"Points : 0",
"Range : 0.000000 - 0.000000",
"Step : 0.010000",
"Channel_info_end",
"Channel_info_start",
"Channel : Sr",
"Points : 0",
"Range : 0.000000 - 0.000000",
"Step : 0.010000",
"Channel_info_end",
"Channel_info_start",
"Channel : Pb",
"Points : 0",
"Range : 0.000000 - 0.000000",
"Step : 0.010000",
"Channel_info_end",
"",
"Qualitative Result",
"--------------------------------------------------------------------------------",
"Element :  Ga, P , Ca, Ru",
"",
"Peak List",
"--------------------------------------------------------------------------------",
"Channel               Line        keV     Net Int.(cps/uA)",
"--------------------------------------------------------------------------------",
"Na                    GaLa         1.11     0.192",
"                      P Ka         2.01     0.259",
"                      CaKa         3.68     0.304",
"                      CaKb         4.02     0.040",
"                      GaKaESC      7.43     0.031",
"                      GaKa         9.24    14.575",
"                      GaKb        10.25     2.094",
"                      RuKa        19.20     0.134",
"                      Ga  SUM     19.44     0.072",
"--------------------------------------------------------------------------------",
"",
"Quantitative Result",
"--------------------------------------------------------------------------------",
"Analyte               Result             Std.Dev. Proc.-Calc. Line Intensity(cps/uA)",
"--------------------------------------------------------------------------------",
"====[No. 1 Layer]====< Layer1               >===============================",
"Layer1                   0.000 ug/cm2    -------- Flux       -------- --------",