File: inputs/edxCalibration/edx_raw/2010/junho/Ge 31504.20100525222610.csv
"Sample    : Ge 31504",
"Operator  : luisf",
"Comment  : cubatao-g-policarbonato",
"Group     : kerr2007ag180cal_lt",
"Date       : 2010-05-25 22:22:05",
"",
"Mesurement Condition",
"------------------------------------------------------------------------------------",
"Instrument : 700HS2   Atmosphere : Vac.   Collimator : 10(mm)   Spin : No",
"------------------------------------------------------------------------------------",
"Analyte               TG kV   uA      FI Acq.(keV)  Anal.(keV)  Time(sec)     DT(%)",
"------------------------------------------------------------------------------------",
"Na                    Rh 50  152-Auto Al  0 - 20    0.8 - 1.2   Live -  179   15",
"",
"<Profile>",
"Channel_info_start",
"Channel : Na",
"Points : 2048",
"Range : 0.000000 - 20.48",
"Step : 0.010000",
"Channel_info_end",
"0",
"0",
"0",
"0",
"0",
"25",
"12",
"14",
"20",
"22",
"9",
"13",
"21",
"11",
"29",
"67",
"169",
"857",
"484",
"86",
"22",
"14",
"18",
"16",
"8",
"15",
"17",
"15",
"43",
"49",
"11",
"16",
"9",
"11",
"4",
"9",
"5",
"10",
"9",
"10",
"14",
"17",
"11",
"10",
"5",
"9",
"15",
"14",
"13",
"12",
"17",
"78",
"403",
"574",
"121",
"33",
"35",
"79",
"78",
"28",
"21",
"25",
"27",
"34",
"35",
"41",
"40",
"35",
"28",
"26",
"34",
"26",
"35",
"21",
"24",
"29",
"33",
"36",
"24",
"35",
"30",
"26",
"29",
"34",
"53",
"45",
"50",
"43",
"66",
"55",
"48",
"76",
"58",
"75",
"58",
"71",
"75",
"65",
"59",
"65",
"50",
"61",
"69",
"65",
"63",
"75",
"64",
"67",
"71",
"61",
"54",
"59",
"74",
"81",
"94",
"114",
"122",
"102",
"72",
"72",
"65",
"96",
"89",
"122",
"103",
"74",
"81",
"72",
"78",
"75",
"66",
"83",
"88",
"83",
"105",
"111",
"148",
"191",
"1238",
"6894",
"18852",
"26337",
"17532",
"6227",
"1053",
"191",
"114",
"94",
"72",
"88",
"107",
"107",
"112",
"188",
"438",
"1494",
"3019",
"3639",
"2137",
"848",
"220",
"90",
"43",
"35",
"47",
"56",
"55",
"59",
"39",
"40",
"42",
"60",
"63",
"35",
"29",
"40",
"56",
"43",
"38",
"36",
"41",
"56",
"50",
"40",
"48",
"40",
"37",
"58",
"41",
"33",
"46",
"29",
"39",
"52",
"51",
"31",
"46",
"31",
"46",
"29",
"50",
"36",
"33",
"38",
"49",
"33",
"41",
"50",
"40",
"45",
"27",
"34",
"46",
"42",
"31",
"42",
"34",
"39",
"42",
"36",
"36",
"35",
"42",
"38",
"35",
"30",
"27",
"34",
"37",
"29",
"39",
"30",
"36",
"36",
"40",
"34",
"33",
"34",
"26",
"39",
"35",
"33",
"26",
"30",
"35",
"29",
"40",
"37",
"37",
"30",
"29",
"23",
"45",
"33",
"27",
"31",
"40",
"33",
"33",
"42",
"43",
"41",
"39",
"45",
"52",
"53",
"45",
"68",
"86",
"103",
"111",
"148",
"203",
"198",
"183",
"223",
"181",
"138",
"109",
"125",
"99",
"76",
"89",
"76",
"87",
"100",
"113",
"122",
"96",
"80",
"42",
"33",
"31",
"15901",
"Channel_info_start",
"Channel : Mg",
"Points : 0",
"Range : 0.000000 - 0.000000",
"Step : 0.010000",
"Channel_info_end",
"Channel_info_start",
"Channel : Al",
"Points : 0",
"Range : 0.000000 - 0.000000",
"Step : 0.010000",
"Channel_info_end",
"Channel_info_start",
"Channel : Si",
"Points : 0",
"Range : 0.000000 - 0.000000",
"Step : 0.010000",
"Channel_info_end",
"Channel_info_start",
"Channel : P ",
"Points : 0",
"Range : 0.000000 - 0.000000",
"Step : 0.010000",
"Channel_info_end",
"Channel_info_start",
"Channel : S ",
"Points : 0",
"Range : 0.000000 - 0.000000",
"Step : 0.010000",
"Channel_info_end",
"Channel_info_start",
"Channel : Cl",
"Points : 0",
"Range : 0.000000 - 0.000000",
"Step : 0.010000",
"Channel_info_end",
"Channel_info_start",
"Channel : K ",
"Points : 0",
"Range : 0.000000 - 0.000000",
"Step : 0.010000",
"Channel_info_end",
"Channel_info_start",
"Channel : Ca",
"Points : 0",
"Range : 0.000000 - 0.000000",
"Step : 0.010000",
"Channel_info_end",
"Channel_info_start",
"Channel : Ti",
"Points : 0",
"Range : 0.000000 - 0.000000",
"Step : 0.010000",
"Channel_info_end",
"Channel_info_start",
"Channel : V ",
"Points : 0",
"Range : 0.000000 - 0.000000",
"Step : 0.010000",
"Channel_info_end",
"Channel_info_start",
"Channel : Cr",
"Points : 0",
"Range : 0.000000 - 0.000000",
"Step : 0.010000",
"Channel_info_end",
"Channel_info_start",
"Channel : Mn",
"Points : 0",
"Range : 0.000000 - 0.000000",
"Step : 0.010000",
"Channel_info_end",
"Channel_info_start",
"Channel : Fe",
"Points : 0",
"Range : 0.000000 - 0.000000",
"Step : 0.010000",
"Channel_info_end",
"Channel_info_start",
"Channel : Cu",
"Points : 0",
"Range : 0.000000 - 0.000000",
"Step : 0.010000",
"Channel_info_end",
"Channel_info_start",
"Channel : Zn",
"Points : 0",
"Range : 0.000000 - 0.000000",
"Step : 0.010000",
"Channel_info_end",
"Channel_info_start",
"Channel : Sr",
"Points : 0",
"Range : 0.000000 - 0.000000",
"Step : 0.010000",
"Channel_info_end",
"Channel_info_start",
"Channel : Pb",
"Points : 0",
"Range : 0.000000 - 0.000000",
"Step : 0.010000",
"Channel_info_end",
"",
"Qualitative Result",
"--------------------------------------------------------------------------------",
"Element :  Na, Ge, P , Ca, Ru",
"",
"Peak List",
"--------------------------------------------------------------------------------",
"Channel               Line        keV     Net Int.(cps/uA)",
"--------------------------------------------------------------------------------",
"Na                    NaKa         1.00     0.011",
"                      GeLa         1.20     0.378",
"                      P Ka         1.99     0.020",
"                      CaKa         3.68     0.278",
"                      CaKb         4.01     0.036",
"                      GeKaESC      8.07     0.049",
"                      GeKa         9.87    17.363",
"                      GeKb        10.97     2.541",
"                      ----        19.04     0.112",
"                      RuKa        19.36     0.081",
"                      ----        20.01     0.048",
"--------------------------------------------------------------------------------",
"",
"Quantitative Result",
"--------------------------------------------------------------------------------",
"Analyte               Result             Std.Dev. Proc.-Calc. Line Intensity(cps/uA)",
"--------------------------------------------------------------------------------",
"====[No. 1 Layer]====< Layer1               >===============================",
"Layer1                  10.801 ug/cm2    -------- Flux       -------- --------",
"Na                      10.801 ug/cm2    -------- ********** -------- --------",