File: inputs/edxCalibration/edx_raw/2010/junho/KCl 31494.20100525204724.csv
"Sample    : KCl 31494",
"Operator  : luisf",
"Comment  : cubatao-g-policarbonato",
"Group     : kerr2007ag180cal_lt",
"Date       : 2010-05-25 20:41:16",
"",
"Mesurement Condition",
"------------------------------------------------------------------------------------",
"Instrument : 700HS2   Atmosphere : Vac.   Collimator : 10(mm)   Spin : No",
"------------------------------------------------------------------------------------",
"Analyte               TG kV   uA      FI Acq.(keV)  Anal.(keV)  Time(sec)     DT(%)",
"------------------------------------------------------------------------------------",
"Na                    Rh 50  500-Auto Al  0 - 20    0.8 - 1.2   Live -  180   15",
"",
"<Profile>",
"Channel_info_start",
"Channel : Na",
"Points : 2048",
"Range : 0.000000 - 20.48",
"Step : 0.010000",
"Channel_info_end",
"0",
"0",
"0",
"0",
"1",
"39",
"39",
"27",
"38",
"38",
"37",
"59",
"156",
"183",
"45",
"45",
"45",
"55",
"43",
"56",
"53",
"76",
"228",
"219",
"70",
"65",
"93",
"89",
"149",
"208",
"109",
"129",
"149",
"203",
"215",
"276",
"1425",
"8174",
"7362",
"1432",
"997",
"740",
"225",
"200",
"230",
"430",
"4154",
"17886",
"13349",
"1923",
"776",
"2460",
"2726",
"2049",
"540",
"108",
"134",
"271",
"227",
"67",
"47",
"51",
"52",
"82",
"85",
"115",
"81",
"91",
"108",
"89",
"110",
"110",
"80",
"85",
"68",
"64",
"83",
"70",
"88",
"80",
"95",
"91",
"95",
"91",
"125",
"101",
"115",
"118",
"145",
"155",
"124",
"139",
"163",
"156",
"159",
"171",
"168",
"144",
"175",
"194",
"177",
"175",
"185",
"163",
"172",
"169",
"202",
"184",
"175",
"199",
"201",
"228",
"196",
"208",
"229",
"235",
"191",
"206",
"169",
"187",
"180",
"194",
"250",
"268",
"226",
"188",
"163",
"177",
"189",
"180",
"159",
"177",
"176",
"180",
"173",
"192",
"169",
"185",
"194",
"153",
"171",
"192",
"167",
"200",
"170",
"169",
"189",
"168",
"159",
"190",
"169",
"175",
"177",
"168",
"156",
"176",
"172",
"169",
"165",
"159",
"165",
"157",
"164",
"130",
"151",
"139",
"146",
"169",
"132",
"147",
"143",
"175",
"158",
"184",
"135",
"155",
"146",
"164",
"154",
"179",
"181",
"136",
"134",
"178",
"154",
"173",
"147",
"160",
"134",
"154",
"103",
"153",
"136",
"131",
"134",
"128",
"116",
"148",
"127",
"132",
"140",
"123",
"117",
"135",
"147",
"129",
"115",
"130",
"120",
"111",
"120",
"117",
"136",
"123",
"144",
"108",
"142",
"128",
"131",
"122",
"123",
"129",
"131",
"124",
"123",
"98",
"89",
"116",
"118",
"111",
"109",
"125",
"110",
"109",
"119",
"106",
"99",
"85",
"108",
"118",
"110",
"113",
"115",
"123",
"105",
"96",
"101",
"97",
"121",
"95",
"108",
"108",
"108",
"115",
"110",
"122",
"117",
"107",
"130",
"141",
"92",
"135",
"131",
"165",
"141",
"143",
"177",
"179",
"240",
"293",
"383",
"484",
"718",
"701",
"716",
"722",
"621",
"523",
"437",
"316",
"237",
"212",
"158",
"189",
"170",
"260",
"336",
"337",
"267",
"196",
"143",
"101",
"108",
"50521",
"Channel_info_start",
"Channel : Mg",
"Points : 0",
"Range : 0.000000 - 0.000000",
"Step : 0.010000",
"Channel_info_end",
"Channel_info_start",
"Channel : Al",
"Points : 0",
"Range : 0.000000 - 0.000000",
"Step : 0.010000",
"Channel_info_end",
"Channel_info_start",
"Channel : Si",
"Points : 0",
"Range : 0.000000 - 0.000000",
"Step : 0.010000",
"Channel_info_end",
"Channel_info_start",
"Channel : P ",
"Points : 0",
"Range : 0.000000 - 0.000000",
"Step : 0.010000",
"Channel_info_end",
"Channel_info_start",
"Channel : S ",
"Points : 0",
"Range : 0.000000 - 0.000000",
"Step : 0.010000",
"Channel_info_end",
"Channel_info_start",
"Channel : Cl",
"Points : 0",
"Range : 0.000000 - 0.000000",
"Step : 0.010000",
"Channel_info_end",
"Channel_info_start",
"Channel : K ",
"Points : 0",
"Range : 0.000000 - 0.000000",
"Step : 0.010000",
"Channel_info_end",
"Channel_info_start",
"Channel : Ca",
"Points : 0",
"Range : 0.000000 - 0.000000",
"Step : 0.010000",
"Channel_info_end",
"Channel_info_start",
"Channel : Ti",
"Points : 0",
"Range : 0.000000 - 0.000000",
"Step : 0.010000",
"Channel_info_end",
"Channel_info_start",
"Channel : V ",
"Points : 0",
"Range : 0.000000 - 0.000000",
"Step : 0.010000",
"Channel_info_end",
"Channel_info_start",
"Channel : Cr",
"Points : 0",
"Range : 0.000000 - 0.000000",
"Step : 0.010000",
"Channel_info_end",
"Channel_info_start",
"Channel : Mn",
"Points : 0",
"Range : 0.000000 - 0.000000",
"Step : 0.010000",
"Channel_info_end",
"Channel_info_start",
"Channel : Fe",
"Points : 0",
"Range : 0.000000 - 0.000000",
"Step : 0.010000",
"Channel_info_end",
"Channel_info_start",
"Channel : Cu",
"Points : 0",
"Range : 0.000000 - 0.000000",
"Step : 0.010000",
"Channel_info_end",
"Channel_info_start",
"Channel : Zn",
"Points : 0",
"Range : 0.000000 - 0.000000",
"Step : 0.010000",
"Channel_info_end",
"Channel_info_start",
"Channel : Sr",
"Points : 0",
"Range : 0.000000 - 0.000000",
"Step : 0.010000",
"Channel_info_end",
"Channel_info_start",
"Channel : Pb",
"Points : 0",
"Range : 0.000000 - 0.000000",
"Step : 0.010000",
"Channel_info_end",
"",
"Qualitative Result",
"--------------------------------------------------------------------------------",
"Element :  P , Cl, K , Ca, Zn",
"",
"Peak List",
"--------------------------------------------------------------------------------",
"Channel               Line        keV     Net Int.(cps/uA)",
"--------------------------------------------------------------------------------",
"Na                    ----         0.87     0.020",
"                      ----         1.58     0.031",
"                      P Ka         1.99     0.017",
"                      ClKa         2.62     1.361",
"                      ClKb         2.82     0.122",
"                      K Ka         3.32     2.870",
"                      K Kb         3.60     0.403",
"                      CaKa         3.69     0.218",
"                      CaKb         4.02     0.031",
"                      ZnKa         8.64     0.020",
"                      ----        19.20     0.142",
"                      ----        19.47     0.053",
"--------------------------------------------------------------------------------",
"",
"Quantitative Result",
"--------------------------------------------------------------------------------",
"Analyte               Result             Std.Dev. Proc.-Calc. Line Intensity(cps/uA)",
"--------------------------------------------------------------------------------",
"====[No. 1 Layer]====< Layer1               >===============================",
"Layer1                   0.000 ug/cm2    -------- Flux       -------- --------",