File: inputs/edxCalibration/edx_raw/2010/junho/Mg 31491.20100611003539.csv
"Sample    : Mg 31491",
"Operator  : thiago",
"Comment  : cubatao-g-policarbonato",
"Group     : kerr2007ag180cal_lt",
"Date       : 2010-06-11 00:31:30",
"",
"Mesurement Condition",
"------------------------------------------------------------------------------------",
"Instrument : 700HS2   Atmosphere : Vac.   Collimator : 10(mm)   Spin : No",
"------------------------------------------------------------------------------------",
"Analyte               TG kV   uA      FI Acq.(keV)  Anal.(keV)  Time(sec)     DT(%)",
"------------------------------------------------------------------------------------",
"Na                    Rh 50  970-Auto Al  0 - 20    0.8 - 1.2   Live -  179   14",
"",
"<Profile>",
"Channel_info_start",
"Channel : Na",
"Points : 2048",
"Range : 0.000000 - 20.48",
"Step : 0.010000",
"Channel_info_end",
"0",
"0",
"0",
"0",
"1",
"42",
"50",
"45",
"32",
"44",
"49",
"32",
"28",
"30",
"43",
"39",
"38",
"91",
"176",
"81",
"36",
"40",
"30",
"46",
"95",
"159",
"84",
"82",
"221",
"279",
"110",
"36",
"43",
"46",
"38",
"29",
"28",
"43",
"49",
"40",
"38",
"52",
"40",
"38",
"29",
"54",
"52",
"41",
"54",
"62",
"97",
"575",
"2536",
"3507",
"1157",
"221",
"259",
"563",
"354",
"162",
"73",
"94",
"119",
"156",
"213",
"203",
"186",
"182",
"168",
"140",
"125",
"139",
"153",
"132",
"128",
"148",
"161",
"199",
"179",
"204",
"196",
"207",
"221",
"245",
"242",
"222",
"213",
"220",
"265",
"257",
"277",
"313",
"287",
"251",
"311",
"292",
"288",
"343",
"302",
"327",
"349",
"327",
"324",
"329",
"323",
"300",
"290",
"336",
"282",
"314",
"305",
"314",
"332",
"357",
"474",
"788",
"980",
"849",
"494",
"373",
"335",
"425",
"453",
"573",
"462",
"394",
"374",
"373",
"324",
"343",
"328",
"452",
"555",
"785",
"635",
"514",
"476",
"477",
"426",
"395",
"314",
"333",
"282",
"320",
"314",
"295",
"327",
"295",
"325",
"287",
"259",
"300",
"317",
"326",
"342",
"374",
"361",
"322",
"286",
"289",
"344",
"292",
"297",
"325",
"288",
"303",
"281",
"300",
"286",
"303",
"270",
"295",
"290",
"297",
"272",
"300",
"301",
"267",
"289",
"261",
"303",
"287",
"253",
"292",
"288",
"285",
"232",
"296",
"264",
"263",
"268",
"222",
"258",
"258",
"248",
"284",
"257",
"276",
"240",
"291",
"259",
"272",
"247",
"263",
"236",
"258",
"245",
"248",
"237",
"231",
"208",
"222",
"207",
"243",
"223",
"222",
"223",
"224",
"216",
"222",
"222",
"229",
"209",
"218",
"250",
"232",
"196",
"207",
"209",
"231",
"187",
"209",
"246",
"173",
"182",
"216",
"190",
"202",
"210",
"188",
"206",
"169",
"205",
"197",
"192",
"190",
"186",
"212",
"215",
"183",
"191",
"201",
"210",
"228",
"201",
"189",
"236",
"244",
"209",
"193",
"212",
"240",
"269",
"277",
"289",
"300",
"349",
"400",
"522",
"647",
"792",
"1068",
"1280",
"1366",
"1419",
"1438",
"1263",
"969",
"777",
"642",
"466",
"370",
"319",
"310",
"367",
"475",
"536",
"589",
"477",
"373",
"261",
"197",
"167",
"96485",
"Channel_info_start",
"Channel : Mg",
"Points : 0",
"Range : 0.000000 - 0.000000",
"Step : 0.010000",
"Channel_info_end",
"Channel_info_start",
"Channel : Al",
"Points : 0",
"Range : 0.000000 - 0.000000",
"Step : 0.010000",
"Channel_info_end",
"Channel_info_start",
"Channel : Si",
"Points : 0",
"Range : 0.000000 - 0.000000",
"Step : 0.010000",
"Channel_info_end",
"Channel_info_start",
"Channel : P ",
"Points : 0",
"Range : 0.000000 - 0.000000",
"Step : 0.010000",
"Channel_info_end",
"Channel_info_start",
"Channel : S ",
"Points : 0",
"Range : 0.000000 - 0.000000",
"Step : 0.010000",
"Channel_info_end",
"Channel_info_start",
"Channel : Cl",
"Points : 0",
"Range : 0.000000 - 0.000000",
"Step : 0.010000",
"Channel_info_end",
"Channel_info_start",
"Channel : K ",
"Points : 0",
"Range : 0.000000 - 0.000000",
"Step : 0.010000",
"Channel_info_end",
"Channel_info_start",
"Channel : Ca",
"Points : 0",
"Range : 0.000000 - 0.000000",
"Step : 0.010000",
"Channel_info_end",
"Channel_info_start",
"Channel : Ti",
"Points : 0",
"Range : 0.000000 - 0.000000",
"Step : 0.010000",
"Channel_info_end",
"Channel_info_start",
"Channel : V ",
"Points : 0",
"Range : 0.000000 - 0.000000",
"Step : 0.010000",
"Channel_info_end",
"Channel_info_start",
"Channel : Cr",
"Points : 0",
"Range : 0.000000 - 0.000000",
"Step : 0.010000",
"Channel_info_end",
"Channel_info_start",
"Channel : Mn",
"Points : 0",
"Range : 0.000000 - 0.000000",
"Step : 0.010000",
"Channel_info_end",
"Channel_info_start",
"Channel : Fe",
"Points : 0",
"Range : 0.000000 - 0.000000",
"Step : 0.010000",
"Channel_info_end",
"Channel_info_start",
"Channel : Cu",
"Points : 0",
"Range : 0.000000 - 0.000000",
"Step : 0.010000",
"Channel_info_end",
"Channel_info_start",
"Channel : Zn",
"Points : 0",
"Range : 0.000000 - 0.000000",
"Step : 0.010000",
"Channel_info_end",
"Channel_info_start",
"Channel : Sr",
"Points : 0",
"Range : 0.000000 - 0.000000",
"Step : 0.010000",
"Channel_info_end",
"Channel_info_start",
"Channel : Pb",
"Points : 0",
"Range : 0.000000 - 0.000000",
"Step : 0.010000",
"Channel_info_end",
"",
"Qualitative Result",
"--------------------------------------------------------------------------------",
"Element :  Mg, Si, P , Ca, Zn, Ru",
"",
"Peak List",
"--------------------------------------------------------------------------------",
"Channel               Line        keV     Net Int.(cps/uA)",
"--------------------------------------------------------------------------------",
"Na                    MgKa         1.25     0.008",
"                      SiKa         1.75     0.007",
"                      P Ka         2.00     0.023",
"                      CaKa         3.68     0.287",
"                      CaKb         4.00     0.038",
"                      ----         4.57     0.009",
"                      ----         8.13     0.068",
"                      ZnKa         8.66     0.017",
"                      ----         9.34     0.043",
"                      ZnKb         9.62     0.019",
"                      RuKa        19.17     0.132",
"                      ----        19.45     0.057",
"                      ----        19.94     0.020",
"--------------------------------------------------------------------------------",
"",
"Quantitative Result",
"--------------------------------------------------------------------------------",
"Analyte               Result             Std.Dev. Proc.-Calc. Line Intensity(cps/uA)",
"--------------------------------------------------------------------------------",
"====[No. 1 Layer]====< Layer1               >===============================",
"Layer1                   0.000 ug/cm2    -------- Flux       -------- --------",