File: inputs/edxCalibration/edx_raw/2010/junho/Mg15751.20100611003947.csv
"Sample    : Mg15751",
"Operator  : thiago",
"Comment  : cubatao-g-policarbonato",
"Group     : kerr2007ag180cal_lt",
"Date       : 2010-06-11 00:35:38",
"",
"Mesurement Condition",
"------------------------------------------------------------------------------------",
"Instrument : 700HS2   Atmosphere : Vac.   Collimator : 10(mm)   Spin : No",
"------------------------------------------------------------------------------------",
"Analyte               TG kV   uA      FI Acq.(keV)  Anal.(keV)  Time(sec)     DT(%)",
"------------------------------------------------------------------------------------",
"Na                    Rh 50  970-Auto Al  0 - 20    0.8 - 1.2   Live -  179   14",
"",
"<Profile>",
"Channel_info_start",
"Channel : Na",
"Points : 2048",
"Range : 0.000000 - 20.48",
"Step : 0.010000",
"Channel_info_end",
"0",
"0",
"0",
"0",
"1",
"52",
"43",
"40",
"42",
"52",
"34",
"40",
"48",
"40",
"33",
"65",
"119",
"727",
"1766",
"530",
"58",
"67",
"26",
"37",
"32",
"59",
"53",
"48",
"122",
"172",
"76",
"44",
"34",
"34",
"28",
"37",
"41",
"27",
"50",
"50",
"41",
"54",
"30",
"48",
"44",
"43",
"43",
"43",
"51",
"50",
"81",
"387",
"1517",
"2055",
"694",
"190",
"225",
"348",
"252",
"111",
"71",
"97",
"128",
"119",
"163",
"183",
"173",
"171",
"150",
"140",
"140",
"134",
"134",
"198",
"157",
"163",
"175",
"192",
"171",
"173",
"164",
"201",
"204",
"234",
"224",
"221",
"249",
"238",
"236",
"227",
"289",
"305",
"283",
"298",
"301",
"343",
"302",
"304",
"326",
"322",
"322",
"335",
"338",
"316",
"322",
"317",
"333",
"338",
"300",
"357",
"356",
"367",
"363",
"421",
"400",
"442",
"368",
"332",
"317",
"334",
"344",
"363",
"387",
"485",
"506",
"364",
"375",
"353",
"348",
"366",
"317",
"292",
"337",
"305",
"326",
"338",
"340",
"320",
"304",
"330",
"312",
"323",
"333",
"331",
"293",
"364",
"316",
"329",
"320",
"364",
"280",
"320",
"302",
"334",
"287",
"331",
"334",
"329",
"309",
"319",
"337",
"312",
"302",
"316",
"288",
"301",
"301",
"297",
"362",
"305",
"286",
"307",
"286",
"294",
"279",
"292",
"278",
"306",
"260",
"288",
"286",
"284",
"254",
"296",
"281",
"294",
"278",
"293",
"281",
"277",
"253",
"267",
"256",
"275",
"255",
"298",
"273",
"268",
"283",
"268",
"248",
"272",
"253",
"263",
"250",
"256",
"215",
"261",
"253",
"256",
"251",
"253",
"223",
"259",
"222",
"238",
"209",
"248",
"217",
"246",
"240",
"252",
"234",
"234",
"218",
"263",
"198",
"220",
"221",
"235",
"212",
"217",
"229",
"199",
"219",
"223",
"193",
"213",
"197",
"211",
"224",
"203",
"193",
"229",
"196",
"183",
"197",
"242",
"224",
"189",
"203",
"186",
"217",
"218",
"197",
"200",
"234",
"203",
"200",
"212",
"240",
"236",
"235",
"283",
"278",
"343",
"339",
"412",
"498",
"656",
"799",
"1127",
"1325",
"1359",
"1472",
"1456",
"1285",
"1059",
"795",
"659",
"474",
"397",
"323",
"337",
"356",
"442",
"561",
"579",
"551",
"402",
"259",
"235",
"176",
"100377",
"Channel_info_start",
"Channel : Mg",
"Points : 0",
"Range : 0.000000 - 0.000000",
"Step : 0.010000",
"Channel_info_end",
"Channel_info_start",
"Channel : Al",
"Points : 0",
"Range : 0.000000 - 0.000000",
"Step : 0.010000",
"Channel_info_end",
"Channel_info_start",
"Channel : Si",
"Points : 0",
"Range : 0.000000 - 0.000000",
"Step : 0.010000",
"Channel_info_end",
"Channel_info_start",
"Channel : P ",
"Points : 0",
"Range : 0.000000 - 0.000000",
"Step : 0.010000",
"Channel_info_end",
"Channel_info_start",
"Channel : S ",
"Points : 0",
"Range : 0.000000 - 0.000000",
"Step : 0.010000",
"Channel_info_end",
"Channel_info_start",
"Channel : Cl",
"Points : 0",
"Range : 0.000000 - 0.000000",
"Step : 0.010000",
"Channel_info_end",
"Channel_info_start",
"Channel : K ",
"Points : 0",
"Range : 0.000000 - 0.000000",
"Step : 0.010000",
"Channel_info_end",
"Channel_info_start",
"Channel : Ca",
"Points : 0",
"Range : 0.000000 - 0.000000",
"Step : 0.010000",
"Channel_info_end",
"Channel_info_start",
"Channel : Ti",
"Points : 0",
"Range : 0.000000 - 0.000000",
"Step : 0.010000",
"Channel_info_end",
"Channel_info_start",
"Channel : V ",
"Points : 0",
"Range : 0.000000 - 0.000000",
"Step : 0.010000",
"Channel_info_end",
"Channel_info_start",
"Channel : Cr",
"Points : 0",
"Range : 0.000000 - 0.000000",
"Step : 0.010000",
"Channel_info_end",
"Channel_info_start",
"Channel : Mn",
"Points : 0",
"Range : 0.000000 - 0.000000",
"Step : 0.010000",
"Channel_info_end",
"Channel_info_start",
"Channel : Fe",
"Points : 0",
"Range : 0.000000 - 0.000000",
"Step : 0.010000",
"Channel_info_end",
"Channel_info_start",
"Channel : Cu",
"Points : 0",
"Range : 0.000000 - 0.000000",
"Step : 0.010000",
"Channel_info_end",
"Channel_info_start",
"Channel : Zn",
"Points : 0",
"Range : 0.000000 - 0.000000",
"Step : 0.010000",
"Channel_info_end",
"Channel_info_start",
"Channel : Sr",
"Points : 0",
"Range : 0.000000 - 0.000000",
"Step : 0.010000",
"Channel_info_end",
"Channel_info_start",
"Channel : Pb",
"Points : 0",
"Range : 0.000000 - 0.000000",
"Step : 0.010000",
"Channel_info_end",
"",
"Qualitative Result",
"--------------------------------------------------------------------------------",
"Element :  Mg, P , Ca, Ru",
"",
"Peak List",
"--------------------------------------------------------------------------------",
"Channel               Line        keV     Net Int.(cps/uA)",
"--------------------------------------------------------------------------------",
"Na                    MgKa         1.26     0.113",
"                      P Ka         2.01     0.012",
"                      CaKa         3.68     0.168",
"                      CaKb         4.00     0.021",
"                      ----         8.64     0.019",
"                      RuKa        19.19     0.133",
"                      ----        19.41     0.070",
"--------------------------------------------------------------------------------",
"",
"Quantitative Result",
"--------------------------------------------------------------------------------",
"Analyte               Result             Std.Dev. Proc.-Calc. Line Intensity(cps/uA)",
"--------------------------------------------------------------------------------",
"====[No. 1 Layer]====< Layer1               >===============================",
"Layer1                   0.000 ug/cm2    -------- Flux       -------- --------",