File: inputs/edxCalibration/edx_raw/2010/junho/MoO3 15764.20100611022302.csv
"Sample    : MoO3 15764",
"Operator  : Luís",
"Comment  : cubatao-g-policarbonato",
"Group     : kerr2007ag180cal_lt",
"Date       : 2010-06-11 02:19:00",
"",
"Mesurement Condition",
"------------------------------------------------------------------------------------",
"Instrument : 700HS2   Atmosphere : Vac.   Collimator : 10(mm)   Spin : No",
"------------------------------------------------------------------------------------",
"Analyte               TG kV   uA      FI Acq.(keV)  Anal.(keV)  Time(sec)     DT(%)",
"------------------------------------------------------------------------------------",
"Na                    Rh 50  210-Auto Al  0 - 20    0.8 - 1.2   Live -  179   14",
"",
"<Profile>",
"Channel_info_start",
"Channel : Na",
"Points : 2048",
"Range : 0.000000 - 20.48",
"Step : 0.010000",
"Channel_info_end",
"0",
"0",
"0",
"0",
"0",
"43",
"44",
"70",
"90",
"98",
"64",
"40",
"54",
"51",
"62",
"52",
"55",
"48",
"44",
"44",
"45",
"39",
"27",
"31",
"43",
"45",
"51",
"72",
"170",
"265",
"177",
"279",
"1435",
"2887",
"1759",
"1061",
"430",
"149",
"65",
"39",
"69",
"62",
"20",
"17",
"19",
"23",
"16",
"36",
"29",
"18",
"19",
"87",
"362",
"473",
"150",
"60",
"53",
"84",
"86",
"26",
"39",
"22",
"40",
"51",
"60",
"52",
"68",
"53",
"65",
"44",
"44",
"45",
"32",
"56",
"40",
"45",
"50",
"57",
"51",
"52",
"48",
"65",
"59",
"64",
"59",
"65",
"59",
"79",
"68",
"59",
"67",
"66",
"74",
"102",
"80",
"84",
"103",
"74",
"92",
"78",
"78",
"101",
"86",
"114",
"82",
"82",
"96",
"80",
"80",
"87",
"99",
"90",
"109",
"101",
"134",
"136",
"100",
"86",
"82",
"86",
"83",
"101",
"114",
"141",
"130",
"107",
"93",
"76",
"89",
"112",
"86",
"88",
"94",
"100",
"106",
"120",
"93",
"94",
"79",
"98",
"95",
"85",
"92",
"84",
"79",
"93",
"79",
"87",
"89",
"84",
"74",
"79",
"82",
"81",
"66",
"80",
"88",
"79",
"83",
"90",
"76",
"92",
"87",
"73",
"78",
"81",
"73",
"95",
"84",
"84",
"64",
"100",
"66",
"68",
"75",
"68",
"62",
"83",
"62",
"64",
"72",
"66",
"55",
"74",
"66",
"69",
"72",
"58",
"78",
"62",
"72",
"64",
"58",
"80",
"66",
"56",
"64",
"72",
"65",
"85",
"69",
"65",
"55",
"65",
"57",
"48",
"52",
"72",
"82",
"53",
"53",
"46",
"67",
"55",
"61",
"55",
"70",
"55",
"53",
"62",
"71",
"54",
"48",
"47",
"53",
"80",
"62",
"61",
"59",
"71",
"64",
"70",
"78",
"59",
"56",
"71",
"79",
"68",
"74",
"88",
"68",
"90",
"122",
"160",
"418",
"1289",
"3399",
"7564",
"11286",
"12327",
"9700",
"5957",
"2492",
"740",
"211",
"96",
"79",
"66",
"60",
"72",
"58",
"52",
"60",
"79",
"89",
"78",
"83",
"122",
"141",
"148",
"202",
"270",
"286",
"335",
"363",
"389",
"564",
"950",
"1528",
"2167",
"2111",
"1521",
"906",
"602",
"498",
"447",
"303",
"226",
"154",
"95",
"78",
"60",
"31",
"22698",
"Channel_info_start",
"Channel : Mg",
"Points : 0",
"Range : 0.000000 - 0.000000",
"Step : 0.010000",
"Channel_info_end",
"Channel_info_start",
"Channel : Al",
"Points : 0",
"Range : 0.000000 - 0.000000",
"Step : 0.010000",
"Channel_info_end",
"Channel_info_start",
"Channel : Si",
"Points : 0",
"Range : 0.000000 - 0.000000",
"Step : 0.010000",
"Channel_info_end",
"Channel_info_start",
"Channel : P ",
"Points : 0",
"Range : 0.000000 - 0.000000",
"Step : 0.010000",
"Channel_info_end",
"Channel_info_start",
"Channel : S ",
"Points : 0",
"Range : 0.000000 - 0.000000",
"Step : 0.010000",
"Channel_info_end",
"Channel_info_start",
"Channel : Cl",
"Points : 0",
"Range : 0.000000 - 0.000000",
"Step : 0.010000",
"Channel_info_end",
"Channel_info_start",
"Channel : K ",
"Points : 0",
"Range : 0.000000 - 0.000000",
"Step : 0.010000",
"Channel_info_end",
"Channel_info_start",
"Channel : Ca",
"Points : 0",
"Range : 0.000000 - 0.000000",
"Step : 0.010000",
"Channel_info_end",
"Channel_info_start",
"Channel : Ti",
"Points : 0",
"Range : 0.000000 - 0.000000",
"Step : 0.010000",
"Channel_info_end",
"Channel_info_start",
"Channel : V ",
"Points : 0",
"Range : 0.000000 - 0.000000",
"Step : 0.010000",
"Channel_info_end",
"Channel_info_start",
"Channel : Cr",
"Points : 0",
"Range : 0.000000 - 0.000000",
"Step : 0.010000",
"Channel_info_end",
"Channel_info_start",
"Channel : Mn",
"Points : 0",
"Range : 0.000000 - 0.000000",
"Step : 0.010000",
"Channel_info_end",
"Channel_info_start",
"Channel : Fe",
"Points : 0",
"Range : 0.000000 - 0.000000",
"Step : 0.010000",
"Channel_info_end",
"Channel_info_start",
"Channel : Cu",
"Points : 0",
"Range : 0.000000 - 0.000000",
"Step : 0.010000",
"Channel_info_end",
"Channel_info_start",
"Channel : Zn",
"Points : 0",
"Range : 0.000000 - 0.000000",
"Step : 0.010000",
"Channel_info_end",
"Channel_info_start",
"Channel : Sr",
"Points : 0",
"Range : 0.000000 - 0.000000",
"Step : 0.010000",
"Channel_info_end",
"Channel_info_start",
"Channel : Pb",
"Points : 0",
"Range : 0.000000 - 0.000000",
"Step : 0.010000",
"Channel_info_end",
"",
"Qualitative Result",
"--------------------------------------------------------------------------------",
"Element :  P , Mo, Ca",
"",
"Peak List",
"--------------------------------------------------------------------------------",
"Channel               Line        keV     Net Int.(cps/uA)",
"--------------------------------------------------------------------------------",
"Na                    ----         0.55     0.015",
"                      ----         0.64     0.015",
"                      P Ka         2.02     0.062",
"                      MoLa         2.30     0.914",
"                      ----         2.43     0.401",
"                      CaKa         3.68     0.165",
"                      CaKb         4.02     0.020",
"                      MoKa        17.44     7.004",
"                      MoKb        19.53     1.120",
"                      ----        19.93     0.160",
"--------------------------------------------------------------------------------",
"",
"Quantitative Result",
"--------------------------------------------------------------------------------",
"Analyte               Result             Std.Dev. Proc.-Calc. Line Intensity(cps/uA)",
"--------------------------------------------------------------------------------",
"====[No. 1 Layer]====< Layer1               >===============================",
"Layer1                   0.000 ug/cm2    -------- Flux       -------- --------",