File: inputs/edxCalibration/edx_raw/2010/junho/MoO3 15764.20100525234538.csv
"Sample    : MoO3 15764",
"Operator  : luisf",
"Comment  : cubatao-g-policarbonato",
"Group     : kerr2007ag180cal_lt",
"Date       : 2010-05-25 23:41:36",
"",
"Mesurement Condition",
"------------------------------------------------------------------------------------",
"Instrument : 700HS2   Atmosphere : Vac.   Collimator : 10(mm)   Spin : No",
"------------------------------------------------------------------------------------",
"Analyte               TG kV   uA      FI Acq.(keV)  Anal.(keV)  Time(sec)     DT(%)",
"------------------------------------------------------------------------------------",
"Na                    Rh 50  210-Auto Al  0 - 20    0.8 - 1.2   Live -  179   14",
"",
"<Profile>",
"Channel_info_start",
"Channel : Na",
"Points : 2048",
"Range : 0.000000 - 20.48",
"Step : 0.010000",
"Channel_info_end",
"0",
"0",
"0",
"0",
"1",
"37",
"44",
"56",
"74",
"72",
"68",
"39",
"42",
"61",
"56",
"70",
"50",
"45",
"43",
"41",
"26",
"38",
"26",
"33",
"34",
"36",
"53",
"74",
"185",
"280",
"179",
"251",
"1453",
"2882",
"1794",
"1122",
"418",
"132",
"79",
"47",
"55",
"47",
"36",
"30",
"18",
"16",
"18",
"22",
"31",
"18",
"33",
"94",
"362",
"443",
"132",
"54",
"45",
"82",
"61",
"33",
"24",
"23",
"43",
"43",
"60",
"55",
"51",
"66",
"43",
"46",
"41",
"53",
"50",
"55",
"42",
"40",
"42",
"48",
"56",
"53",
"45",
"58",
"47",
"65",
"71",
"51",
"57",
"72",
"62",
"80",
"74",
"83",
"70",
"82",
"76",
"85",
"87",
"85",
"86",
"88",
"89",
"85",
"76",
"84",
"73",
"81",
"88",
"90",
"110",
"82",
"73",
"97",
"93",
"93",
"112",
"153",
"108",
"93",
"76",
"100",
"86",
"97",
"104",
"120",
"120",
"113",
"86",
"90",
"96",
"78",
"96",
"75",
"84",
"81",
"79",
"81",
"90",
"98",
"98",
"92",
"81",
"78",
"79",
"94",
"86",
"101",
"81",
"79",
"75",
"69",
"74",
"89",
"79",
"87",
"69",
"69",
"96",
"57",
"71",
"80",
"83",
"71",
"96",
"80",
"82",
"83",
"62",
"71",
"83",
"70",
"88",
"70",
"68",
"87",
"74",
"68",
"86",
"55",
"96",
"95",
"86",
"69",
"75",
"83",
"59",
"75",
"74",
"64",
"54",
"68",
"65",
"74",
"76",
"82",
"65",
"71",
"72",
"75",
"47",
"60",
"70",
"78",
"64",
"66",
"70",
"69",
"58",
"69",
"72",
"67",
"67",
"59",
"75",
"62",
"69",
"75",
"54",
"57",
"67",
"68",
"55",
"69",
"60",
"83",
"62",
"45",
"61",
"39",
"72",
"68",
"74",
"54",
"72",
"59",
"68",
"75",
"72",
"79",
"78",
"97",
"90",
"114",
"96",
"156",
"385",
"1185",
"3095",
"6742",
"10487",
"12249",
"10101",
"6472",
"2683",
"870",
"265",
"106",
"62",
"66",
"68",
"62",
"64",
"60",
"57",
"75",
"78",
"89",
"90",
"117",
"120",
"140",
"192",
"235",
"298",
"318",
"375",
"387",
"553",
"900",
"1481",
"2068",
"2153",
"1615",
"991",
"626",
"522",
"433",
"308",
"228",
"130",
"88",
"68",
"58",
"50",
"22782",
"Channel_info_start",
"Channel : Mg",
"Points : 0",
"Range : 0.000000 - 0.000000",
"Step : 0.010000",
"Channel_info_end",
"Channel_info_start",
"Channel : Al",
"Points : 0",
"Range : 0.000000 - 0.000000",
"Step : 0.010000",
"Channel_info_end",
"Channel_info_start",
"Channel : Si",
"Points : 0",
"Range : 0.000000 - 0.000000",
"Step : 0.010000",
"Channel_info_end",
"Channel_info_start",
"Channel : P ",
"Points : 0",
"Range : 0.000000 - 0.000000",
"Step : 0.010000",
"Channel_info_end",
"Channel_info_start",
"Channel : S ",
"Points : 0",
"Range : 0.000000 - 0.000000",
"Step : 0.010000",
"Channel_info_end",
"Channel_info_start",
"Channel : Cl",
"Points : 0",
"Range : 0.000000 - 0.000000",
"Step : 0.010000",
"Channel_info_end",
"Channel_info_start",
"Channel : K ",
"Points : 0",
"Range : 0.000000 - 0.000000",
"Step : 0.010000",
"Channel_info_end",
"Channel_info_start",
"Channel : Ca",
"Points : 0",
"Range : 0.000000 - 0.000000",
"Step : 0.010000",
"Channel_info_end",
"Channel_info_start",
"Channel : Ti",
"Points : 0",
"Range : 0.000000 - 0.000000",
"Step : 0.010000",
"Channel_info_end",
"Channel_info_start",
"Channel : V ",
"Points : 0",
"Range : 0.000000 - 0.000000",
"Step : 0.010000",
"Channel_info_end",
"Channel_info_start",
"Channel : Cr",
"Points : 0",
"Range : 0.000000 - 0.000000",
"Step : 0.010000",
"Channel_info_end",
"Channel_info_start",
"Channel : Mn",
"Points : 0",
"Range : 0.000000 - 0.000000",
"Step : 0.010000",
"Channel_info_end",
"Channel_info_start",
"Channel : Fe",
"Points : 0",
"Range : 0.000000 - 0.000000",
"Step : 0.010000",
"Channel_info_end",
"Channel_info_start",
"Channel : Cu",
"Points : 0",
"Range : 0.000000 - 0.000000",
"Step : 0.010000",
"Channel_info_end",
"Channel_info_start",
"Channel : Zn",
"Points : 0",
"Range : 0.000000 - 0.000000",
"Step : 0.010000",
"Channel_info_end",
"Channel_info_start",
"Channel : Sr",
"Points : 0",
"Range : 0.000000 - 0.000000",
"Step : 0.010000",
"Channel_info_end",
"Channel_info_start",
"Channel : Pb",
"Points : 0",
"Range : 0.000000 - 0.000000",
"Step : 0.010000",
"Channel_info_end",
"",
"Qualitative Result",
"--------------------------------------------------------------------------------",
"Element :  P , Mo, Ca",
"",
"Peak List",
"--------------------------------------------------------------------------------",
"Channel               Line        keV     Net Int.(cps/uA)",
"--------------------------------------------------------------------------------",
"Na                    ----         0.54     0.013",
"                      P Ka         2.02     0.061",
"                      MoLa         2.30     0.900",
"                      CaKa         3.68     0.162",
"                      CaKb         4.00     0.022",
"                      MoKa        17.42     6.988",
"                      MoKb        19.59     1.135",
"                      ----        19.97     0.130",
"--------------------------------------------------------------------------------",
"",
"Quantitative Result",
"--------------------------------------------------------------------------------",
"Analyte               Result             Std.Dev. Proc.-Calc. Line Intensity(cps/uA)",
"--------------------------------------------------------------------------------",
"====[No. 1 Layer]====< Layer1               >===============================",
"Layer1                   0.000 ug/cm2    -------- Flux       -------- --------",