File: inputs/edxCalibration/edx_raw/2010/junho/MoO3 31507.20100626140433.csv
"Sample    : MoO3 31507",
"Operator  : thiago",
"Comment  : cubatao-g-policarbonato",
"Group     : kerr2007ag180cal_lt",
"Date       : 2010-06-26 14:00:31",
"",
"Mesurement Condition",
"------------------------------------------------------------------------------------",
"Instrument : 700HS2   Atmosphere : Vac.   Collimator : 10(mm)   Spin : No",
"------------------------------------------------------------------------------------",
"Analyte               TG kV   uA      FI Acq.(keV)  Anal.(keV)  Time(sec)     DT(%)",
"------------------------------------------------------------------------------------",
"Na                    Rh 50  210-Auto Al  0 - 20    0.8 - 1.2   Live -  179   14",
"",
"<Profile>",
"Channel_info_start",
"Channel : Na",
"Points : 2048",
"Range : 0.000000 - 20.48",
"Step : 0.010000",
"Channel_info_end",
"0",
"0",
"0",
"0",
"0",
"54",
"38",
"50",
"77",
"58",
"46",
"64",
"54",
"50",
"45",
"48",
"38",
"44",
"36",
"41",
"27",
"38",
"33",
"37",
"40",
"42",
"39",
"55",
"121",
"224",
"140",
"175",
"1012",
"2023",
"1359",
"846",
"316",
"129",
"81",
"34",
"70",
"55",
"26",
"17",
"25",
"28",
"20",
"32",
"24",
"30",
"34",
"107",
"537",
"795",
"248",
"58",
"66",
"127",
"97",
"38",
"29",
"36",
"38",
"47",
"43",
"56",
"53",
"43",
"48",
"50",
"38",
"57",
"57",
"46",
"41",
"55",
"56",
"37",
"46",
"60",
"48",
"53",
"46",
"50",
"57",
"66",
"84",
"88",
"71",
"87",
"82",
"93",
"84",
"60",
"58",
"68",
"94",
"80",
"87",
"103",
"91",
"76",
"95",
"99",
"86",
"96",
"88",
"97",
"96",
"95",
"75",
"87",
"95",
"74",
"90",
"121",
"112",
"96",
"83",
"89",
"91",
"88",
"112",
"143",
"136",
"99",
"102",
"89",
"86",
"90",
"90",
"90",
"95",
"84",
"91",
"71",
"91",
"94",
"90",
"103",
"93",
"88",
"75",
"91",
"86",
"108",
"84",
"75",
"85",
"79",
"87",
"82",
"77",
"85",
"73",
"90",
"76",
"79",
"99",
"95",
"76",
"88",
"71",
"80",
"86",
"79",
"66",
"76",
"83",
"84",
"79",
"80",
"85",
"84",
"70",
"79",
"79",
"76",
"70",
"84",
"61",
"58",
"71",
"69",
"89",
"75",
"75",
"74",
"57",
"71",
"69",
"59",
"64",
"72",
"61",
"64",
"64",
"62",
"62",
"73",
"65",
"73",
"56",
"73",
"61",
"61",
"48",
"68",
"61",
"45",
"60",
"58",
"66",
"52",
"73",
"54",
"69",
"66",
"45",
"64",
"74",
"55",
"54",
"65",
"67",
"69",
"72",
"53",
"52",
"53",
"59",
"54",
"65",
"69",
"57",
"59",
"64",
"84",
"87",
"74",
"95",
"103",
"110",
"147",
"319",
"976",
"2825",
"6339",
"10301",
"12394",
"10732",
"7239",
"3329",
"1024",
"252",
"123",
"85",
"65",
"67",
"47",
"68",
"56",
"57",
"74",
"64",
"82",
"80",
"103",
"116",
"142",
"186",
"249",
"278",
"332",
"336",
"372",
"490",
"747",
"1366",
"2039",
"2146",
"1622",
"1048",
"703",
"497",
"462",
"367",
"271",
"185",
"97",
"82",
"66",
"45",
"22614",
"Channel_info_start",
"Channel : Mg",
"Points : 0",
"Range : 0.000000 - 0.000000",
"Step : 0.010000",
"Channel_info_end",
"Channel_info_start",
"Channel : Al",
"Points : 0",
"Range : 0.000000 - 0.000000",
"Step : 0.010000",
"Channel_info_end",
"Channel_info_start",
"Channel : Si",
"Points : 0",
"Range : 0.000000 - 0.000000",
"Step : 0.010000",
"Channel_info_end",
"Channel_info_start",
"Channel : P ",
"Points : 0",
"Range : 0.000000 - 0.000000",
"Step : 0.010000",
"Channel_info_end",
"Channel_info_start",
"Channel : S ",
"Points : 0",
"Range : 0.000000 - 0.000000",
"Step : 0.010000",
"Channel_info_end",
"Channel_info_start",
"Channel : Cl",
"Points : 0",
"Range : 0.000000 - 0.000000",
"Step : 0.010000",
"Channel_info_end",
"Channel_info_start",
"Channel : K ",
"Points : 0",
"Range : 0.000000 - 0.000000",
"Step : 0.010000",
"Channel_info_end",
"Channel_info_start",
"Channel : Ca",
"Points : 0",
"Range : 0.000000 - 0.000000",
"Step : 0.010000",
"Channel_info_end",
"Channel_info_start",
"Channel : Ti",
"Points : 0",
"Range : 0.000000 - 0.000000",
"Step : 0.010000",
"Channel_info_end",
"Channel_info_start",
"Channel : V ",
"Points : 0",
"Range : 0.000000 - 0.000000",
"Step : 0.010000",
"Channel_info_end",
"Channel_info_start",
"Channel : Cr",
"Points : 0",
"Range : 0.000000 - 0.000000",
"Step : 0.010000",
"Channel_info_end",
"Channel_info_start",
"Channel : Mn",
"Points : 0",
"Range : 0.000000 - 0.000000",
"Step : 0.010000",
"Channel_info_end",
"Channel_info_start",
"Channel : Fe",
"Points : 0",
"Range : 0.000000 - 0.000000",
"Step : 0.010000",
"Channel_info_end",
"Channel_info_start",
"Channel : Cu",
"Points : 0",
"Range : 0.000000 - 0.000000",
"Step : 0.010000",
"Channel_info_end",
"Channel_info_start",
"Channel : Zn",
"Points : 0",
"Range : 0.000000 - 0.000000",
"Step : 0.010000",
"Channel_info_end",
"Channel_info_start",
"Channel : Sr",
"Points : 0",
"Range : 0.000000 - 0.000000",
"Step : 0.010000",
"Channel_info_end",
"Channel_info_start",
"Channel : Pb",
"Points : 0",
"Range : 0.000000 - 0.000000",
"Step : 0.010000",
"Channel_info_end",
"",
"Qualitative Result",
"--------------------------------------------------------------------------------",
"Element :  P , Mo, Ca",
"",
"Peak List",
"--------------------------------------------------------------------------------",
"Channel               Line        keV     Net Int.(cps/uA)",
"--------------------------------------------------------------------------------",
"Na                    ----         0.55     0.010",
"                      P Ka         2.01     0.058",
"                      MoLa         2.30     0.638",
"                      ----         2.42     0.333",
"                      CaKa         3.69     0.302",
"                      CaKb         4.00     0.039",
"                      MoKa        17.44     7.231",
"                      MoKb        19.60     1.141",
"                      ----        19.98     0.138",
"--------------------------------------------------------------------------------",
"",
"Quantitative Result",
"--------------------------------------------------------------------------------",
"Analyte               Result             Std.Dev. Proc.-Calc. Line Intensity(cps/uA)",
"--------------------------------------------------------------------------------",
"====[No. 1 Layer]====< Layer1               >===============================",
"Layer1                   0.000 ug/cm2    -------- Flux       -------- --------",