File: inputs/edxCalibration/edx_raw/2010/junho/NaCl 15750.20100611004357.csv
"Sample    : NaCl 15750",
"Operator  : thiago",
"Comment  : cubatao-g-policarbonato",
"Group     : kerr2007ag180cal_lt",
"Date       : 2010-06-11 00:39:46",
"",
"Mesurement Condition",
"------------------------------------------------------------------------------------",
"Instrument : 700HS2   Atmosphere : Vac.   Collimator : 10(mm)   Spin : No",
"------------------------------------------------------------------------------------",
"Analyte               TG kV   uA      FI Acq.(keV)  Anal.(keV)  Time(sec)     DT(%)",
"------------------------------------------------------------------------------------",
"Na                    Rh 50  802-Auto Al  0 - 20    0.8 - 1.2   Live -  179   15",
"",
"<Profile>",
"Channel_info_start",
"Channel : Na",
"Points : 2048",
"Range : 0.000000 - 20.48",
"Step : 0.010000",
"Channel_info_end",
"0",
"0",
"0",
"0",
"0",
"49",
"47",
"59",
"49",
"46",
"41",
"67",
"211",
"239",
"150",
"295",
"89",
"58",
"48",
"57",
"48",
"46",
"46",
"41",
"49",
"64",
"58",
"76",
"131",
"247",
"137",
"179",
"223",
"308",
"305",
"419",
"2079",
"12012",
"10841",
"2023",
"1364",
"872",
"101",
"39",
"27",
"38",
"38",
"47",
"47",
"39",
"84",
"340",
"1275",
"1792",
"571",
"163",
"169",
"265",
"204",
"117",
"53",
"67",
"90",
"125",
"137",
"147",
"136",
"128",
"113",
"127",
"110",
"119",
"101",
"123",
"116",
"134",
"154",
"157",
"152",
"165",
"153",
"131",
"158",
"161",
"167",
"184",
"188",
"229",
"234",
"237",
"239",
"233",
"268",
"250",
"234",
"259",
"293",
"296",
"232",
"293",
"262",
"262",
"241",
"225",
"259",
"273",
"276",
"239",
"268",
"222",
"272",
"288",
"281",
"322",
"333",
"346",
"341",
"297",
"271",
"293",
"318",
"359",
"448",
"566",
"476",
"347",
"296",
"280",
"289",
"301",
"272",
"293",
"260",
"290",
"273",
"273",
"276",
"305",
"298",
"266",
"260",
"305",
"276",
"300",
"250",
"265",
"227",
"301",
"314",
"275",
"258",
"274",
"269",
"247",
"273",
"271",
"276",
"269",
"270",
"285",
"252",
"233",
"262",
"268",
"289",
"262",
"269",
"283",
"251",
"253",
"246",
"272",
"239",
"241",
"249",
"258",
"208",
"226",
"232",
"273",
"225",
"260",
"233",
"224",
"229",
"237",
"232",
"218",
"223",
"210",
"253",
"219",
"207",
"243",
"226",
"243",
"222",
"239",
"204",
"207",
"210",
"215",
"193",
"190",
"216",
"228",
"209",
"218",
"195",
"209",
"214",
"196",
"195",
"191",
"197",
"219",
"216",
"193",
"181",
"195",
"190",
"202",
"187",
"197",
"179",
"161",
"186",
"177",
"157",
"166",
"174",
"186",
"185",
"174",
"158",
"178",
"174",
"163",
"166",
"175",
"157",
"150",
"165",
"181",
"161",
"156",
"151",
"187",
"170",
"183",
"169",
"169",
"189",
"183",
"190",
"165",
"203",
"203",
"184",
"190",
"200",
"208",
"209",
"219",
"250",
"235",
"305",
"382",
"452",
"621",
"687",
"931",
"1127",
"1167",
"1284",
"1199",
"1064",
"843",
"681",
"506",
"380",
"325",
"253",
"269",
"299",
"382",
"472",
"465",
"412",
"320",
"227",
"178",
"179",
"83144",
"Channel_info_start",
"Channel : Mg",
"Points : 0",
"Range : 0.000000 - 0.000000",
"Step : 0.010000",
"Channel_info_end",
"Channel_info_start",
"Channel : Al",
"Points : 0",
"Range : 0.000000 - 0.000000",
"Step : 0.010000",
"Channel_info_end",
"Channel_info_start",
"Channel : Si",
"Points : 0",
"Range : 0.000000 - 0.000000",
"Step : 0.010000",
"Channel_info_end",
"Channel_info_start",
"Channel : P ",
"Points : 0",
"Range : 0.000000 - 0.000000",
"Step : 0.010000",
"Channel_info_end",
"Channel_info_start",
"Channel : S ",
"Points : 0",
"Range : 0.000000 - 0.000000",
"Step : 0.010000",
"Channel_info_end",
"Channel_info_start",
"Channel : Cl",
"Points : 0",
"Range : 0.000000 - 0.000000",
"Step : 0.010000",
"Channel_info_end",
"Channel_info_start",
"Channel : K ",
"Points : 0",
"Range : 0.000000 - 0.000000",
"Step : 0.010000",
"Channel_info_end",
"Channel_info_start",
"Channel : Ca",
"Points : 0",
"Range : 0.000000 - 0.000000",
"Step : 0.010000",
"Channel_info_end",
"Channel_info_start",
"Channel : Ti",
"Points : 0",
"Range : 0.000000 - 0.000000",
"Step : 0.010000",
"Channel_info_end",
"Channel_info_start",
"Channel : V ",
"Points : 0",
"Range : 0.000000 - 0.000000",
"Step : 0.010000",
"Channel_info_end",
"Channel_info_start",
"Channel : Cr",
"Points : 0",
"Range : 0.000000 - 0.000000",
"Step : 0.010000",
"Channel_info_end",
"Channel_info_start",
"Channel : Mn",
"Points : 0",
"Range : 0.000000 - 0.000000",
"Step : 0.010000",
"Channel_info_end",
"Channel_info_start",
"Channel : Fe",
"Points : 0",
"Range : 0.000000 - 0.000000",
"Step : 0.010000",
"Channel_info_end",
"Channel_info_start",
"Channel : Cu",
"Points : 0",
"Range : 0.000000 - 0.000000",
"Step : 0.010000",
"Channel_info_end",
"Channel_info_start",
"Channel : Zn",
"Points : 0",
"Range : 0.000000 - 0.000000",
"Step : 0.010000",
"Channel_info_end",
"Channel_info_start",
"Channel : Sr",
"Points : 0",
"Range : 0.000000 - 0.000000",
"Step : 0.010000",
"Channel_info_end",
"Channel_info_start",
"Channel : Pb",
"Points : 0",
"Range : 0.000000 - 0.000000",
"Step : 0.010000",
"Channel_info_end",
"",
"Qualitative Result",
"--------------------------------------------------------------------------------",
"Element :  Na, P , S , Cl, Ca, Ti, Ru",
"",
"Peak List",
"--------------------------------------------------------------------------------",
"Channel               Line        keV     Net Int.(cps/uA)",
"--------------------------------------------------------------------------------",
"Na                    ----         0.88     0.018",
"                      NaKa         1.05     0.016",
"                      P Ka         2.00     0.013",
"                      S Ka         2.30     0.015",
"                      ClKa         2.62     1.252",
"                      ClKb         2.84     0.106",
"                      CaKa         3.68     0.173",
"                      CaKb         4.02     0.021",
"                      TiKa         4.56     0.007",
"                      ----         8.62     0.035",
"                      RuKa        19.20     0.139",
"                      ----        19.44     0.070",
"                      ----        20.04     0.042",
"--------------------------------------------------------------------------------",
"",
"Quantitative Result",
"--------------------------------------------------------------------------------",
"Analyte               Result             Std.Dev. Proc.-Calc. Line Intensity(cps/uA)",
"--------------------------------------------------------------------------------",
"====[No. 1 Layer]====< Layer1               >===============================",
"Layer1                  16.054 ug/cm2    -------- Flux       -------- --------",
"Na                      16.054 ug/cm2    -------- ********** -------- --------",