File: inputs/edxCalibration/edx_raw/2010/junho/Ndf3 31515.20100611034500.csv
"Sample    : Ndf3 31515",
"Operator  : Luís",
"Comment  : cubatao-g-policarbonato",
"Group     : kerr2007ag180cal_lt",
"Date       : 2010-06-11 03:40:48",
"",
"Mesurement Condition",
"------------------------------------------------------------------------------------",
"Instrument : 700HS2   Atmosphere : Vac.   Collimator : 10(mm)   Spin : No",
"------------------------------------------------------------------------------------",
"Analyte               TG kV   uA      FI Acq.(keV)  Anal.(keV)  Time(sec)     DT(%)",
"------------------------------------------------------------------------------------",
"Na                    Rh 50  360-Auto Al  0 - 20    0.8 - 1.2   Live -  179   15",
"",
"<Profile>",
"Channel_info_start",
"Channel : Na",
"Points : 2048",
"Range : 0.000000 - 20.48",
"Step : 0.010000",
"Channel_info_end",
"0",
"0",
"0",
"0",
"1",
"33",
"23",
"17",
"28",
"25",
"32",
"41",
"31",
"61",
"231",
"217",
"60",
"68",
"69",
"63",
"60",
"34",
"27",
"20",
"34",
"44",
"33",
"41",
"77",
"106",
"45",
"36",
"27",
"23",
"22",
"13",
"33",
"31",
"28",
"31",
"31",
"45",
"37",
"24",
"38",
"44",
"31",
"37",
"47",
"105",
"135",
"200",
"955",
"1263",
"399",
"85",
"146",
"286",
"159",
"85",
"46",
"62",
"88",
"116",
"151",
"368",
"762",
"534",
"210",
"127",
"115",
"171",
"405",
"3293",
"11604",
"14670",
"4922",
"664",
"177",
"323",
"1784",
"7206",
"9135",
"5351",
"1832",
"864",
"1652",
"2727",
"1473",
"457",
"180",
"211",
"336",
"845",
"1413",
"1133",
"478",
"466",
"768",
"656",
"348",
"270",
"223",
"163",
"134",
"131",
"128",
"129",
"128",
"119",
"131",
"153",
"153",
"217",
"178",
"227",
"177",
"169",
"141",
"169",
"144",
"165",
"156",
"187",
"199",
"164",
"148",
"142",
"159",
"177",
"136",
"146",
"141",
"138",
"140",
"144",
"143",
"147",
"158",
"168",
"180",
"157",
"160",
"155",
"154",
"158",
"139",
"148",
"165",
"162",
"141",
"151",
"115",
"131",
"140",
"139",
"157",
"153",
"120",
"158",
"153",
"122",
"146",
"144",
"141",
"145",
"128",
"164",
"130",
"131",
"134",
"123",
"153",
"119",
"138",
"139",
"123",
"118",
"116",
"110",
"119",
"128",
"112",
"112",
"123",
"136",
"120",
"111",
"118",
"108",
"115",
"112",
"109",
"115",
"108",
"98",
"122",
"118",
"110",
"119",
"109",
"116",
"100",
"114",
"97",
"98",
"92",
"98",
"109",
"96",
"117",
"105",
"110",
"111",
"98",
"92",
"100",
"89",
"92",
"95",
"106",
"82",
"108",
"93",
"89",
"87",
"93",
"108",
"110",
"65",
"88",
"87",
"97",
"88",
"74",
"97",
"101",
"98",
"72",
"72",
"71",
"95",
"79",
"85",
"81",
"61",
"80",
"80",
"84",
"81",
"73",
"75",
"99",
"96",
"77",
"81",
"93",
"77",
"94",
"76",
"76",
"95",
"114",
"97",
"109",
"107",
"136",
"166",
"191",
"254",
"283",
"421",
"439",
"526",
"459",
"499",
"474",
"396",
"280",
"202",
"164",
"117",
"126",
"126",
"204",
"237",
"300",
"319",
"284",
"191",
"117",
"93",
"77",
"39600",
"Channel_info_start",
"Channel : Mg",
"Points : 0",
"Range : 0.000000 - 0.000000",
"Step : 0.010000",
"Channel_info_end",
"Channel_info_start",
"Channel : Al",
"Points : 0",
"Range : 0.000000 - 0.000000",
"Step : 0.010000",
"Channel_info_end",
"Channel_info_start",
"Channel : Si",
"Points : 0",
"Range : 0.000000 - 0.000000",
"Step : 0.010000",
"Channel_info_end",
"Channel_info_start",
"Channel : P ",
"Points : 0",
"Range : 0.000000 - 0.000000",
"Step : 0.010000",
"Channel_info_end",
"Channel_info_start",
"Channel : S ",
"Points : 0",
"Range : 0.000000 - 0.000000",
"Step : 0.010000",
"Channel_info_end",
"Channel_info_start",
"Channel : Cl",
"Points : 0",
"Range : 0.000000 - 0.000000",
"Step : 0.010000",
"Channel_info_end",
"Channel_info_start",
"Channel : K ",
"Points : 0",
"Range : 0.000000 - 0.000000",
"Step : 0.010000",
"Channel_info_end",
"Channel_info_start",
"Channel : Ca",
"Points : 0",
"Range : 0.000000 - 0.000000",
"Step : 0.010000",
"Channel_info_end",
"Channel_info_start",
"Channel : Ti",
"Points : 0",
"Range : 0.000000 - 0.000000",
"Step : 0.010000",
"Channel_info_end",
"Channel_info_start",
"Channel : V ",
"Points : 0",
"Range : 0.000000 - 0.000000",
"Step : 0.010000",
"Channel_info_end",
"Channel_info_start",
"Channel : Cr",
"Points : 0",
"Range : 0.000000 - 0.000000",
"Step : 0.010000",
"Channel_info_end",
"Channel_info_start",
"Channel : Mn",
"Points : 0",
"Range : 0.000000 - 0.000000",
"Step : 0.010000",
"Channel_info_end",
"Channel_info_start",
"Channel : Fe",
"Points : 0",
"Range : 0.000000 - 0.000000",
"Step : 0.010000",
"Channel_info_end",
"Channel_info_start",
"Channel : Cu",
"Points : 0",
"Range : 0.000000 - 0.000000",
"Step : 0.010000",
"Channel_info_end",
"Channel_info_start",
"Channel : Zn",
"Points : 0",
"Range : 0.000000 - 0.000000",
"Step : 0.010000",
"Channel_info_end",
"Channel_info_start",
"Channel : Sr",
"Points : 0",
"Range : 0.000000 - 0.000000",
"Step : 0.010000",
"Channel_info_end",
"Channel_info_start",
"Channel : Pb",
"Points : 0",
"Range : 0.000000 - 0.000000",
"Step : 0.010000",
"Channel_info_end",
"",
"Qualitative Result",
"--------------------------------------------------------------------------------",
"Element :  Nd, Mg, P , Ca, La, Tm, Cu, Ru",
"",
"Peak List",
"--------------------------------------------------------------------------------",
"Channel               Line        keV     Net Int.(cps/uA)",
"--------------------------------------------------------------------------------",
"Na                    NdMa         1.02     0.045",
"                      MgKa         1.21     0.008",
"                      P Ka         2.00     0.018",
"                      NdLaESC      3.47     0.018",
"                      CaKa         3.68     0.286",
"                      CaKb         4.01     0.040",
"                      NdLL         4.63     0.108",
"                      LaLa         4.63     0.045",
"                      NdLa         5.22     3.601",
"                      NdLb1        5.72     2.297",
"                      NdLb2        6.08     0.594",
"                      NdLg1        6.58     0.325",
"                      NdLg2        6.87     0.153",
"                      TmLa         7.10     0.029",
"                      TmLb1        8.10     0.016",
"                      CuKa         8.10     0.008",
"                      RuKa        19.20     0.142",
"                      ----        19.48     0.035",
"--------------------------------------------------------------------------------",
"",
"Quantitative Result",
"--------------------------------------------------------------------------------",
"Analyte               Result             Std.Dev. Proc.-Calc. Line Intensity(cps/uA)",
"--------------------------------------------------------------------------------",
"====[No. 1 Layer]====< Layer1               >===============================",
"Layer1                   2.689 ug/cm2    -------- Flux       -------- --------",
"Mg                       2.689 ug/cm2    -------- ********** -------- --------",