File: inputs/edxCalibration/edx_raw/2010/junho/NdF3 31515.20100626150702.csv
"Sample    : NdF3 31515",
"Operator  : thiago",
"Comment  : cubatao-g-policarbonato",
"Group     : kerr2007ag180cal_lt",
"Date       : 2010-06-26 15:02:49",
"",
"Mesurement Condition",
"------------------------------------------------------------------------------------",
"Instrument : 700HS2   Atmosphere : Vac.   Collimator : 10(mm)   Spin : No",
"------------------------------------------------------------------------------------",
"Analyte               TG kV   uA      FI Acq.(keV)  Anal.(keV)  Time(sec)     DT(%)",
"------------------------------------------------------------------------------------",
"Na                    Rh 50  360-Auto Al  0 - 20    0.8 - 1.2   Live -  179   15",
"",
"<Profile>",
"Channel_info_start",
"Channel : Na",
"Points : 2048",
"Range : 0.000000 - 20.48",
"Step : 0.010000",
"Channel_info_end",
"0",
"0",
"0",
"0",
"1",
"25",
"22",
"26",
"17",
"17",
"39",
"43",
"26",
"68",
"197",
"200",
"71",
"82",
"81",
"87",
"44",
"23",
"35",
"27",
"32",
"39",
"27",
"51",
"99",
"135",
"32",
"33",
"27",
"17",
"24",
"27",
"14",
"33",
"29",
"28",
"28",
"32",
"29",
"27",
"20",
"39",
"34",
"42",
"44",
"114",
"127",
"188",
"942",
"1325",
"426",
"132",
"140",
"257",
"221",
"87",
"78",
"63",
"91",
"107",
"131",
"385",
"726",
"583",
"220",
"144",
"140",
"176",
"415",
"2957",
"11212",
"15368",
"5718",
"733",
"168",
"270",
"1570",
"6848",
"9563",
"5580",
"2130",
"856",
"1587",
"2761",
"1725",
"478",
"200",
"198",
"286",
"776",
"1378",
"1253",
"511",
"465",
"753",
"691",
"380",
"255",
"206",
"159",
"141",
"117",
"109",
"134",
"140",
"130",
"161",
"194",
"132",
"176",
"200",
"239",
"173",
"173",
"184",
"128",
"152",
"156",
"177",
"236",
"189",
"181",
"163",
"164",
"168",
"139",
"134",
"151",
"125",
"169",
"159",
"165",
"173",
"153",
"134",
"142",
"155",
"135",
"163",
"172",
"152",
"166",
"138",
"165",
"154",
"173",
"163",
"150",
"145",
"153",
"126",
"164",
"152",
"156",
"130",
"159",
"142",
"152",
"123",
"126",
"129",
"150",
"133",
"141",
"129",
"149",
"130",
"126",
"133",
"114",
"131",
"115",
"118",
"109",
"134",
"166",
"114",
"101",
"135",
"108",
"105",
"119",
"113",
"126",
"113",
"121",
"114",
"128",
"138",
"111",
"99",
"113",
"123",
"106",
"115",
"129",
"107",
"117",
"105",
"111",
"98",
"102",
"86",
"97",
"129",
"102",
"87",
"107",
"84",
"108",
"95",
"105",
"109",
"81",
"88",
"85",
"111",
"104",
"74",
"75",
"90",
"94",
"94",
"91",
"94",
"93",
"86",
"93",
"84",
"93",
"72",
"90",
"82",
"59",
"80",
"79",
"90",
"81",
"98",
"71",
"82",
"76",
"72",
"83",
"82",
"81",
"73",
"84",
"90",
"83",
"69",
"75",
"115",
"91",
"101",
"91",
"94",
"81",
"102",
"97",
"95",
"120",
"117",
"168",
"186",
"243",
"281",
"373",
"446",
"524",
"518",
"548",
"501",
"421",
"319",
"245",
"204",
"139",
"147",
"119",
"142",
"208",
"285",
"317",
"339",
"235",
"152",
"91",
"84",
"40306",
"Channel_info_start",
"Channel : Mg",
"Points : 0",
"Range : 0.000000 - 0.000000",
"Step : 0.010000",
"Channel_info_end",
"Channel_info_start",
"Channel : Al",
"Points : 0",
"Range : 0.000000 - 0.000000",
"Step : 0.010000",
"Channel_info_end",
"Channel_info_start",
"Channel : Si",
"Points : 0",
"Range : 0.000000 - 0.000000",
"Step : 0.010000",
"Channel_info_end",
"Channel_info_start",
"Channel : P ",
"Points : 0",
"Range : 0.000000 - 0.000000",
"Step : 0.010000",
"Channel_info_end",
"Channel_info_start",
"Channel : S ",
"Points : 0",
"Range : 0.000000 - 0.000000",
"Step : 0.010000",
"Channel_info_end",
"Channel_info_start",
"Channel : Cl",
"Points : 0",
"Range : 0.000000 - 0.000000",
"Step : 0.010000",
"Channel_info_end",
"Channel_info_start",
"Channel : K ",
"Points : 0",
"Range : 0.000000 - 0.000000",
"Step : 0.010000",
"Channel_info_end",
"Channel_info_start",
"Channel : Ca",
"Points : 0",
"Range : 0.000000 - 0.000000",
"Step : 0.010000",
"Channel_info_end",
"Channel_info_start",
"Channel : Ti",
"Points : 0",
"Range : 0.000000 - 0.000000",
"Step : 0.010000",
"Channel_info_end",
"Channel_info_start",
"Channel : V ",
"Points : 0",
"Range : 0.000000 - 0.000000",
"Step : 0.010000",
"Channel_info_end",
"Channel_info_start",
"Channel : Cr",
"Points : 0",
"Range : 0.000000 - 0.000000",
"Step : 0.010000",
"Channel_info_end",
"Channel_info_start",
"Channel : Mn",
"Points : 0",
"Range : 0.000000 - 0.000000",
"Step : 0.010000",
"Channel_info_end",
"Channel_info_start",
"Channel : Fe",
"Points : 0",
"Range : 0.000000 - 0.000000",
"Step : 0.010000",
"Channel_info_end",
"Channel_info_start",
"Channel : Cu",
"Points : 0",
"Range : 0.000000 - 0.000000",
"Step : 0.010000",
"Channel_info_end",
"Channel_info_start",
"Channel : Zn",
"Points : 0",
"Range : 0.000000 - 0.000000",
"Step : 0.010000",
"Channel_info_end",
"Channel_info_start",
"Channel : Sr",
"Points : 0",
"Range : 0.000000 - 0.000000",
"Step : 0.010000",
"Channel_info_end",
"Channel_info_start",
"Channel : Pb",
"Points : 0",
"Range : 0.000000 - 0.000000",
"Step : 0.010000",
"Channel_info_end",
"",
"Qualitative Result",
"--------------------------------------------------------------------------------",
"Element :  Nd, Mg, P , Ca, Sm, Cu, Ru",
"",
"Peak List",
"--------------------------------------------------------------------------------",
"Channel               Line        keV     Net Int.(cps/uA)",
"--------------------------------------------------------------------------------",
"Na                    NdMa         1.01     0.043",
"                      MgKa         1.21     0.008",
"                      ----         1.33     0.010",
"                      P Ka         2.01     0.018",
"                      NdLaESC      3.46     0.017",
"                      CaKa         3.69     0.301",
"                      CaKb         4.01     0.044",
"                      NdLL         4.64     0.145",
"                      NdLa         5.24     3.648",
"                      NdLb1        5.72     2.152",
"                      SmLa         5.72     0.152",
"                      NdLb2        6.08     0.605",
"                      NdLg1        6.60     0.328",
"                      NdLg2        6.88     0.153",
"                      CuKa         8.04     0.030",
"                      RuKa        19.21     0.144",
"--------------------------------------------------------------------------------",
"",
"Quantitative Result",
"--------------------------------------------------------------------------------",
"Analyte               Result             Std.Dev. Proc.-Calc. Line Intensity(cps/uA)",
"--------------------------------------------------------------------------------",
"====[No. 1 Layer]====< Layer1               >===============================",
"Layer1                   2.630 ug/cm2    -------- Flux       -------- --------",
"Mg                       2.630 ug/cm2    -------- ********** -------- --------",