File: inputs/edxCalibration/edx_raw/2010/junho/NdF3 31515.20100526005120.csv
"Sample    : NdF3 31515",
"Operator  : luisf",
"Comment  : cubatao-g-policarbonato",
"Group     : kerr2007ag180cal_lt",
"Date       : 2010-05-26 00:47:20",
"",
"Mesurement Condition",
"------------------------------------------------------------------------------------",
"Instrument : 700HS2   Atmosphere : Vac.   Collimator : 10(mm)   Spin : No",
"------------------------------------------------------------------------------------",
"Analyte               TG kV   uA      FI Acq.(keV)  Anal.(keV)  Time(sec)     DT(%)",
"------------------------------------------------------------------------------------",
"Na                    Rh 50  309-Auto Al  0 - 20    0.8 - 1.2   Live -  179   13",
"",
"<Profile>",
"Channel_info_start",
"Channel : Na",
"Points : 2048",
"Range : 0.000000 - 20.48",
"Step : 0.010000",
"Channel_info_end",
"0",
"0",
"0",
"0",
"0",
"22",
"16",
"17",
"24",
"18",
"36",
"30",
"29",
"51",
"186",
"174",
"57",
"60",
"51",
"53",
"28",
"29",
"29",
"22",
"28",
"32",
"26",
"30",
"85",
"122",
"49",
"23",
"26",
"31",
"14",
"23",
"16",
"22",
"25",
"31",
"36",
"28",
"32",
"19",
"27",
"35",
"29",
"30",
"32",
"83",
"93",
"176",
"740",
"1209",
"350",
"78",
"111",
"224",
"164",
"76",
"70",
"80",
"77",
"102",
"122",
"317",
"648",
"534",
"181",
"135",
"126",
"149",
"327",
"2744",
"9905",
"13104",
"4508",
"597",
"171",
"244",
"1435",
"6021",
"8001",
"4754",
"1752",
"725",
"1431",
"2379",
"1362",
"396",
"136",
"167",
"288",
"704",
"1258",
"1027",
"408",
"371",
"703",
"573",
"347",
"224",
"204",
"170",
"113",
"120",
"122",
"108",
"107",
"117",
"166",
"132",
"153",
"173",
"171",
"211",
"178",
"171",
"149",
"117",
"129",
"120",
"160",
"205",
"176",
"146",
"146",
"146",
"131",
"108",
"135",
"124",
"157",
"134",
"132",
"134",
"134",
"122",
"136",
"154",
"137",
"143",
"130",
"136",
"130",
"109",
"146",
"175",
"132",
"145",
"129",
"148",
"130",
"129",
"124",
"122",
"147",
"122",
"119",
"133",
"123",
"139",
"96",
"124",
"111",
"103",
"117",
"134",
"111",
"117",
"122",
"113",
"110",
"122",
"113",
"105",
"119",
"135",
"121",
"102",
"108",
"115",
"107",
"98",
"87",
"91",
"100",
"87",
"90",
"120",
"106",
"104",
"97",
"107",
"76",
"90",
"92",
"92",
"92",
"89",
"83",
"92",
"90",
"85",
"77",
"107",
"82",
"100",
"85",
"76",
"84",
"91",
"94",
"90",
"86",
"90",
"95",
"85",
"87",
"79",
"75",
"78",
"77",
"77",
"83",
"66",
"73",
"86",
"84",
"100",
"81",
"77",
"63",
"76",
"73",
"82",
"71",
"58",
"71",
"80",
"71",
"69",
"66",
"64",
"77",
"75",
"69",
"75",
"64",
"77",
"72",
"67",
"69",
"84",
"92",
"89",
"73",
"75",
"72",
"73",
"79",
"92",
"64",
"89",
"95",
"96",
"104",
"145",
"158",
"197",
"227",
"354",
"394",
"402",
"499",
"470",
"422",
"348",
"317",
"219",
"173",
"132",
"116",
"98",
"183",
"190",
"306",
"270",
"283",
"157",
"93",
"59",
"70",
"34610",
"Channel_info_start",
"Channel : Mg",
"Points : 0",
"Range : 0.000000 - 0.000000",
"Step : 0.010000",
"Channel_info_end",
"Channel_info_start",
"Channel : Al",
"Points : 0",
"Range : 0.000000 - 0.000000",
"Step : 0.010000",
"Channel_info_end",
"Channel_info_start",
"Channel : Si",
"Points : 0",
"Range : 0.000000 - 0.000000",
"Step : 0.010000",
"Channel_info_end",
"Channel_info_start",
"Channel : P ",
"Points : 0",
"Range : 0.000000 - 0.000000",
"Step : 0.010000",
"Channel_info_end",
"Channel_info_start",
"Channel : S ",
"Points : 0",
"Range : 0.000000 - 0.000000",
"Step : 0.010000",
"Channel_info_end",
"Channel_info_start",
"Channel : Cl",
"Points : 0",
"Range : 0.000000 - 0.000000",
"Step : 0.010000",
"Channel_info_end",
"Channel_info_start",
"Channel : K ",
"Points : 0",
"Range : 0.000000 - 0.000000",
"Step : 0.010000",
"Channel_info_end",
"Channel_info_start",
"Channel : Ca",
"Points : 0",
"Range : 0.000000 - 0.000000",
"Step : 0.010000",
"Channel_info_end",
"Channel_info_start",
"Channel : Ti",
"Points : 0",
"Range : 0.000000 - 0.000000",
"Step : 0.010000",
"Channel_info_end",
"Channel_info_start",
"Channel : V ",
"Points : 0",
"Range : 0.000000 - 0.000000",
"Step : 0.010000",
"Channel_info_end",
"Channel_info_start",
"Channel : Cr",
"Points : 0",
"Range : 0.000000 - 0.000000",
"Step : 0.010000",
"Channel_info_end",
"Channel_info_start",
"Channel : Mn",
"Points : 0",
"Range : 0.000000 - 0.000000",
"Step : 0.010000",
"Channel_info_end",
"Channel_info_start",
"Channel : Fe",
"Points : 0",
"Range : 0.000000 - 0.000000",
"Step : 0.010000",
"Channel_info_end",
"Channel_info_start",
"Channel : Cu",
"Points : 0",
"Range : 0.000000 - 0.000000",
"Step : 0.010000",
"Channel_info_end",
"Channel_info_start",
"Channel : Zn",
"Points : 0",
"Range : 0.000000 - 0.000000",
"Step : 0.010000",
"Channel_info_end",
"Channel_info_start",
"Channel : Sr",
"Points : 0",
"Range : 0.000000 - 0.000000",
"Step : 0.010000",
"Channel_info_end",
"Channel_info_start",
"Channel : Pb",
"Points : 0",
"Range : 0.000000 - 0.000000",
"Step : 0.010000",
"Channel_info_end",
"",
"Qualitative Result",
"--------------------------------------------------------------------------------",
"Element :  Nd, Mg, P , Ca, La, Ru",
"",
"Peak List",
"--------------------------------------------------------------------------------",
"Channel               Line        keV     Net Int.(cps/uA)",
"--------------------------------------------------------------------------------",
"Na                    NdMa         1.00     0.045",
"                      MgKa         1.23     0.008",
"                      P Ka         2.00     0.020",
"                      NdLaESC      3.47     0.020",
"                      CaKa         3.68     0.300",
"                      CaKb         4.01     0.047",
"                      NdLL         4.63     0.108",
"                      LaLa         4.63     0.045",
"                      NdLa         5.23     3.607",
"                      NdLb1        5.72     2.351",
"                      NdLb2        6.09     0.613",
"                      NdLg1        6.60     0.335",
"                      NdLg2        6.88     0.161",
"                      ----         8.06     0.027",
"                      RuKa        19.20     0.142",
"                      ----        19.45     0.066",
"                      ----        20.00     0.066",
"--------------------------------------------------------------------------------",
"",
"Quantitative Result",
"--------------------------------------------------------------------------------",
"Analyte               Result             Std.Dev. Proc.-Calc. Line Intensity(cps/uA)",
"--------------------------------------------------------------------------------",
"====[No. 1 Layer]====< Layer1               >===============================",
"Layer1                   2.450 ug/cm2    -------- Flux       -------- --------",
"Mg                       2.450 ug/cm2    -------- ********** -------- --------",