File: inputs/edxCalibration/edx_raw/2010/junho/Ni 15757.20100611011016.csv
"Sample    : Ni 15757",
"Operator  : Luís",
"Comment  : cubatao-g-policarbonato",
"Group     : kerr2007ag180cal_lt",
"Date       : 2010-06-11 01:04:12",
"",
"Mesurement Condition",
"------------------------------------------------------------------------------------",
"Instrument : 700HS2   Atmosphere : Vac.   Collimator : 10(mm)   Spin : No",
"------------------------------------------------------------------------------------",
"Analyte               TG kV   uA      FI Acq.(keV)  Anal.(keV)  Time(sec)     DT(%)",
"------------------------------------------------------------------------------------",
"Na                    Rh 50  168-Auto Al  0 - 20    0.8 - 1.2   Live -  179   16",
"",
"<Profile>",
"Channel_info_start",
"Channel : Na",
"Points : 2048",
"Range : 0.000000 - 20.48",
"Step : 0.010000",
"Channel_info_end",
"0",
"0",
"0",
"0",
"0",
"13",
"9",
"16",
"11",
"13",
"15",
"40",
"112",
"85",
"27",
"16",
"13",
"10",
"9",
"11",
"8",
"14",
"8",
"10",
"22",
"13",
"16",
"9",
"38",
"35",
"15",
"13",
"17",
"11",
"9",
"19",
"11",
"9",
"20",
"9",
"9",
"14",
"9",
"10",
"10",
"10",
"12",
"10",
"12",
"20",
"14",
"62",
"294",
"376",
"126",
"45",
"43",
"73",
"54",
"20",
"15",
"22",
"33",
"51",
"23",
"35",
"33",
"35",
"23",
"39",
"23",
"21",
"23",
"39",
"27",
"40",
"33",
"34",
"25",
"43",
"63",
"106",
"126",
"73",
"52",
"51",
"54",
"71",
"75",
"93",
"103",
"89",
"96",
"92",
"78",
"66",
"84",
"86",
"80",
"101",
"114",
"144",
"172",
"260",
"1347",
"9348",
"27369",
"32743",
"13967",
"2463",
"254",
"107",
"114",
"137",
"157",
"298",
"1098",
"3143",
"4320",
"2836",
"754",
"136",
"98",
"103",
"82",
"59",
"52",
"69",
"60",
"71",
"59",
"54",
"59",
"49",
"48",
"66",
"80",
"78",
"70",
"58",
"70",
"66",
"59",
"63",
"48",
"55",
"51",
"74",
"48",
"60",
"58",
"62",
"54",
"51",
"55",
"60",
"63",
"57",
"56",
"55",
"60",
"58",
"45",
"57",
"64",
"50",
"54",
"63",
"47",
"60",
"44",
"52",
"48",
"69",
"43",
"48",
"49",
"42",
"54",
"58",
"48",
"61",
"52",
"52",
"45",
"56",
"46",
"59",
"49",
"52",
"28",
"48",
"57",
"45",
"52",
"37",
"64",
"39",
"40",
"40",
"45",
"35",
"44",
"45",
"44",
"37",
"58",
"38",
"34",
"43",
"32",
"56",
"80",
"95",
"86",
"71",
"54",
"46",
"39",
"36",
"38",
"45",
"34",
"44",
"58",
"57",
"46",
"43",
"32",
"34",
"33",
"39",
"32",
"35",
"43",
"44",
"48",
"28",
"36",
"44",
"32",
"52",
"36",
"46",
"42",
"36",
"25",
"35",
"30",
"42",
"35",
"33",
"28",
"35",
"36",
"35",
"40",
"40",
"37",
"38",
"42",
"46",
"37",
"52",
"60",
"54",
"63",
"80",
"75",
"109",
"160",
"178",
"225",
"271",
"260",
"236",
"209",
"180",
"118",
"114",
"92",
"83",
"55",
"54",
"78",
"94",
"119",
"120",
"103",
"70",
"44",
"31",
"32",
"17365",
"Channel_info_start",
"Channel : Mg",
"Points : 0",
"Range : 0.000000 - 0.000000",
"Step : 0.010000",
"Channel_info_end",
"Channel_info_start",
"Channel : Al",
"Points : 0",
"Range : 0.000000 - 0.000000",
"Step : 0.010000",
"Channel_info_end",
"Channel_info_start",
"Channel : Si",
"Points : 0",
"Range : 0.000000 - 0.000000",
"Step : 0.010000",
"Channel_info_end",
"Channel_info_start",
"Channel : P ",
"Points : 0",
"Range : 0.000000 - 0.000000",
"Step : 0.010000",
"Channel_info_end",
"Channel_info_start",
"Channel : S ",
"Points : 0",
"Range : 0.000000 - 0.000000",
"Step : 0.010000",
"Channel_info_end",
"Channel_info_start",
"Channel : Cl",
"Points : 0",
"Range : 0.000000 - 0.000000",
"Step : 0.010000",
"Channel_info_end",
"Channel_info_start",
"Channel : K ",
"Points : 0",
"Range : 0.000000 - 0.000000",
"Step : 0.010000",
"Channel_info_end",
"Channel_info_start",
"Channel : Ca",
"Points : 0",
"Range : 0.000000 - 0.000000",
"Step : 0.010000",
"Channel_info_end",
"Channel_info_start",
"Channel : Ti",
"Points : 0",
"Range : 0.000000 - 0.000000",
"Step : 0.010000",
"Channel_info_end",
"Channel_info_start",
"Channel : V ",
"Points : 0",
"Range : 0.000000 - 0.000000",
"Step : 0.010000",
"Channel_info_end",
"Channel_info_start",
"Channel : Cr",
"Points : 0",
"Range : 0.000000 - 0.000000",
"Step : 0.010000",
"Channel_info_end",
"Channel_info_start",
"Channel : Mn",
"Points : 0",
"Range : 0.000000 - 0.000000",
"Step : 0.010000",
"Channel_info_end",
"Channel_info_start",
"Channel : Fe",
"Points : 0",
"Range : 0.000000 - 0.000000",
"Step : 0.010000",
"Channel_info_end",
"Channel_info_start",
"Channel : Cu",
"Points : 0",
"Range : 0.000000 - 0.000000",
"Step : 0.010000",
"Channel_info_end",
"Channel_info_start",
"Channel : Zn",
"Points : 0",
"Range : 0.000000 - 0.000000",
"Step : 0.010000",
"Channel_info_end",
"Channel_info_start",
"Channel : Sr",
"Points : 0",
"Range : 0.000000 - 0.000000",
"Step : 0.010000",
"Channel_info_end",
"Channel_info_start",
"Channel : Pb",
"Points : 0",
"Range : 0.000000 - 0.000000",
"Step : 0.010000",
"Channel_info_end",
"",
"Qualitative Result",
"--------------------------------------------------------------------------------",
"Element :  Ni, P , Ca, Rh",
"",
"Peak List",
"--------------------------------------------------------------------------------",
"Channel               Line        keV     Net Int.(cps/uA)",
"--------------------------------------------------------------------------------",
"Na                    NiLa         0.86     0.046",
"                      P Ka         2.01     0.013",
"                      CaKa         3.69     0.168",
"                      CaKb         3.99     0.023",
"                      NiKaESC      5.73     0.039",
"                      NiKa         7.46    18.949",
"                      NiKb         8.24     2.509",
"                      NiKaSUM     14.86     0.034",
"                      RhKaC       19.12     0.143",
"                      ----        19.37     0.079",
"                      RhKa        20.12     0.067",
"--------------------------------------------------------------------------------",
"",
"Quantitative Result",
"--------------------------------------------------------------------------------",
"Analyte               Result             Std.Dev. Proc.-Calc. Line Intensity(cps/uA)",
"--------------------------------------------------------------------------------",
"====[No. 1 Layer]====< Layer1               >===============================",
"Layer1                   0.000 ug/cm2    -------- Flux       -------- --------",