File: inputs/edxCalibration/edx_raw/2010/junho/Pb 15772.20100526013406.csv
"Sample    : Pb 15772",
"Operator  : luisf",
"Comment  : cubatao-g-policarbonato",
"Group     : kerr2007ag180cal_lt",
"Date       : 2010-05-26 01:30:03",
"",
"Mesurement Condition",
"------------------------------------------------------------------------------------",
"Instrument : 700HS2   Atmosphere : Vac.   Collimator : 10(mm)   Spin : No",
"------------------------------------------------------------------------------------",
"Analyte               TG kV   uA      FI Acq.(keV)  Anal.(keV)  Time(sec)     DT(%)",
"------------------------------------------------------------------------------------",
"Na                    Rh 50  152-Auto Al  0 - 20    0.8 - 1.2   Live -  179   15",
"",
"<Profile>",
"Channel_info_start",
"Channel : Na",
"Points : 2048",
"Range : 0.000000 - 20.48",
"Step : 0.010000",
"Channel_info_end",
"0",
"0",
"0",
"0",
"0",
"26",
"30",
"23",
"75",
"85",
"87",
"50",
"35",
"27",
"27",
"39",
"23",
"28",
"24",
"24",
"34",
"47",
"33",
"39",
"46",
"99",
"307",
"221",
"142",
"184",
"196",
"312",
"478",
"2622",
"4286",
"3348",
"1237",
"325",
"420",
"216",
"88",
"73",
"60",
"80",
"175",
"151",
"68",
"34",
"24",
"18",
"33",
"81",
"246",
"337",
"113",
"35",
"40",
"54",
"51",
"25",
"15",
"25",
"30",
"22",
"41",
"36",
"54",
"50",
"26",
"43",
"44",
"47",
"36",
"56",
"42",
"46",
"37",
"38",
"51",
"39",
"38",
"41",
"54",
"68",
"53",
"75",
"60",
"74",
"68",
"79",
"92",
"89",
"102",
"86",
"72",
"94",
"83",
"92",
"90",
"101",
"98",
"98",
"68",
"89",
"83",
"80",
"92",
"96",
"99",
"98",
"107",
"105",
"91",
"108",
"121",
"124",
"127",
"95",
"91",
"81",
"86",
"114",
"95",
"141",
"134",
"110",
"117",
"99",
"126",
"196",
"416",
"699",
"555",
"261",
"128",
"117",
"107",
"114",
"98",
"95",
"116",
"108",
"92",
"114",
"113",
"107",
"162",
"485",
"1714",
"5237",
"9301",
"10227",
"5730",
"1922",
"413",
"170",
"107",
"118",
"100",
"102",
"155",
"202",
"230",
"214",
"124",
"115",
"85",
"103",
"79",
"83",
"95",
"128",
"203",
"307",
"376",
"499",
"574",
"783",
"2233",
"5183",
"6887",
"5846",
"2971",
"1329",
"610",
"442",
"352",
"280",
"166",
"124",
"102",
"93",
"85",
"79",
"59",
"89",
"69",
"48",
"56",
"56",
"63",
"54",
"72",
"100",
"75",
"72",
"90",
"120",
"218",
"537",
"903",
"996",
"726",
"396",
"257",
"285",
"327",
"348",
"235",
"125",
"105",
"74",
"55",
"64",
"79",
"100",
"73",
"63",
"54",
"51",
"33",
"56",
"51",
"37",
"59",
"42",
"31",
"28",
"55",
"48",
"44",
"41",
"39",
"54",
"46",
"38",
"44",
"36",
"33",
"46",
"39",
"61",
"39",
"43",
"34",
"39",
"57",
"38",
"48",
"42",
"38",
"59",
"57",
"59",
"50",
"59",
"62",
"78",
"75",
"113",
"120",
"182",
"202",
"210",
"227",
"230",
"226",
"155",
"167",
"116",
"92",
"75",
"54",
"65",
"99",
"188",
"192",
"236",
"206",
"153",
"72",
"37",
"29",
"20124",
"Channel_info_start",
"Channel : Mg",
"Points : 0",
"Range : 0.000000 - 0.000000",
"Step : 0.010000",
"Channel_info_end",
"Channel_info_start",
"Channel : Al",
"Points : 0",
"Range : 0.000000 - 0.000000",
"Step : 0.010000",
"Channel_info_end",
"Channel_info_start",
"Channel : Si",
"Points : 0",
"Range : 0.000000 - 0.000000",
"Step : 0.010000",
"Channel_info_end",
"Channel_info_start",
"Channel : P ",
"Points : 0",
"Range : 0.000000 - 0.000000",
"Step : 0.010000",
"Channel_info_end",
"Channel_info_start",
"Channel : S ",
"Points : 0",
"Range : 0.000000 - 0.000000",
"Step : 0.010000",
"Channel_info_end",
"Channel_info_start",
"Channel : Cl",
"Points : 0",
"Range : 0.000000 - 0.000000",
"Step : 0.010000",
"Channel_info_end",
"Channel_info_start",
"Channel : K ",
"Points : 0",
"Range : 0.000000 - 0.000000",
"Step : 0.010000",
"Channel_info_end",
"Channel_info_start",
"Channel : Ca",
"Points : 0",
"Range : 0.000000 - 0.000000",
"Step : 0.010000",
"Channel_info_end",
"Channel_info_start",
"Channel : Ti",
"Points : 0",
"Range : 0.000000 - 0.000000",
"Step : 0.010000",
"Channel_info_end",
"Channel_info_start",
"Channel : V ",
"Points : 0",
"Range : 0.000000 - 0.000000",
"Step : 0.010000",
"Channel_info_end",
"Channel_info_start",
"Channel : Cr",
"Points : 0",
"Range : 0.000000 - 0.000000",
"Step : 0.010000",
"Channel_info_end",
"Channel_info_start",
"Channel : Mn",
"Points : 0",
"Range : 0.000000 - 0.000000",
"Step : 0.010000",
"Channel_info_end",
"Channel_info_start",
"Channel : Fe",
"Points : 0",
"Range : 0.000000 - 0.000000",
"Step : 0.010000",
"Channel_info_end",
"Channel_info_start",
"Channel : Cu",
"Points : 0",
"Range : 0.000000 - 0.000000",
"Step : 0.010000",
"Channel_info_end",
"Channel_info_start",
"Channel : Zn",
"Points : 0",
"Range : 0.000000 - 0.000000",
"Step : 0.010000",
"Channel_info_end",
"Channel_info_start",
"Channel : Sr",
"Points : 0",
"Range : 0.000000 - 0.000000",
"Step : 0.010000",
"Channel_info_end",
"Channel_info_start",
"Channel : Pb",
"Points : 0",
"Range : 0.000000 - 0.000000",
"Step : 0.010000",
"Channel_info_end",
"",
"Qualitative Result",
"--------------------------------------------------------------------------------",
"Element :  Pb, S , Cl, Ca, Ir, Ru",
"",
"Peak List",
"--------------------------------------------------------------------------------",
"Channel               Line        keV     Net Int.(cps/uA)",
"--------------------------------------------------------------------------------",
"Na                    ----         0.60     0.028",
"                      ----         0.70     0.022",
"                      ----         1.83     0.105",
"                      PbMa         2.37     1.281",
"                      S Ka         2.37     0.598",
"                      ClKa         2.66     0.159",
"                      ----         3.11     0.058",
"                      CaKa         3.69     0.159",
"                      CaKb         4.04     0.022",
"                      PbLL         9.16     0.285",
"                      IrLa         9.16     0.123",
"                      PbLa        10.54     7.118",
"                      IrLb1       10.71     0.068",
"                      PbLn        11.34     0.097",
"                      PbLb4       12.24     0.168",
"                      PbLb1       12.61     4.798",
"                      ----        13.06     0.095",
"                      PbLg1       14.72     0.700",
"                      PbLg2       15.17     0.203",
"                      RuKa        19.20     0.145",
"                      ----        19.98     0.124",
"--------------------------------------------------------------------------------",
"",
"Quantitative Result",
"--------------------------------------------------------------------------------",
"Analyte               Result             Std.Dev. Proc.-Calc. Line Intensity(cps/uA)",
"--------------------------------------------------------------------------------",
"====[No. 1 Layer]====< Layer1               >===============================",
"Layer1                   0.000 ug/cm2    -------- Flux       -------- --------",