File: inputs/edxCalibration/edx_raw/2010/junho/Pb 31519.20100611041141.csv
"Sample    : Pb 31519",
"Operator  : Luís",
"Comment  : cubatao-g-policarbonato",
"Group     : kerr2007ag180cal_lt",
"Date       : 2010-06-11 04:07:37",
"",
"Mesurement Condition",
"------------------------------------------------------------------------------------",
"Instrument : 700HS2   Atmosphere : Vac.   Collimator : 10(mm)   Spin : No",
"------------------------------------------------------------------------------------",
"Analyte               TG kV   uA      FI Acq.(keV)  Anal.(keV)  Time(sec)     DT(%)",
"------------------------------------------------------------------------------------",
"Na                    Rh 50  168-Auto Al  0 - 20    0.8 - 1.2   Live -  180   15",
"",
"<Profile>",
"Channel_info_start",
"Channel : Na",
"Points : 2048",
"Range : 0.000000 - 20.48",
"Step : 0.010000",
"Channel_info_end",
"0",
"0",
"0",
"0",
"0",
"34",
"18",
"37",
"59",
"107",
"84",
"50",
"27",
"30",
"37",
"37",
"26",
"25",
"22",
"32",
"24",
"28",
"57",
"40",
"58",
"112",
"312",
"215",
"135",
"166",
"179",
"303",
"497",
"2893",
"4273",
"3565",
"1241",
"362",
"453",
"226",
"80",
"67",
"53",
"105",
"164",
"163",
"65",
"20",
"34",
"23",
"36",
"61",
"263",
"341",
"115",
"41",
"33",
"67",
"58",
"29",
"35",
"25",
"30",
"25",
"40",
"55",
"42",
"49",
"45",
"38",
"45",
"45",
"48",
"58",
"32",
"54",
"47",
"53",
"35",
"49",
"65",
"47",
"49",
"57",
"53",
"68",
"72",
"54",
"75",
"100",
"99",
"108",
"99",
"90",
"92",
"103",
"88",
"95",
"92",
"111",
"102",
"96",
"78",
"80",
"104",
"96",
"102",
"119",
"85",
"96",
"91",
"83",
"88",
"114",
"134",
"136",
"100",
"103",
"109",
"98",
"122",
"101",
"137",
"132",
"114",
"110",
"117",
"113",
"136",
"230",
"522",
"694",
"580",
"257",
"163",
"109",
"125",
"102",
"107",
"102",
"101",
"124",
"117",
"121",
"128",
"130",
"182",
"503",
"1939",
"5780",
"9834",
"10453",
"5529",
"1706",
"361",
"141",
"112",
"117",
"114",
"144",
"137",
"212",
"221",
"214",
"129",
"111",
"108",
"95",
"90",
"99",
"89",
"136",
"204",
"325",
"422",
"544",
"575",
"909",
"2526",
"5623",
"7418",
"5905",
"2839",
"1260",
"574",
"468",
"360",
"301",
"191",
"125",
"102",
"107",
"87",
"77",
"68",
"71",
"66",
"67",
"51",
"63",
"62",
"73",
"79",
"89",
"128",
"101",
"94",
"129",
"279",
"600",
"969",
"1057",
"691",
"358",
"247",
"288",
"379",
"329",
"234",
"142",
"85",
"64",
"55",
"73",
"83",
"92",
"71",
"67",
"65",
"48",
"52",
"39",
"55",
"41",
"66",
"42",
"47",
"50",
"51",
"47",
"54",
"38",
"34",
"48",
"39",
"61",
"37",
"52",
"35",
"47",
"49",
"48",
"50",
"40",
"49",
"37",
"49",
"50",
"49",
"46",
"48",
"65",
"53",
"58",
"62",
"74",
"67",
"73",
"82",
"135",
"150",
"195",
"233",
"264",
"260",
"257",
"222",
"189",
"150",
"114",
"91",
"74",
"78",
"103",
"121",
"198",
"222",
"281",
"233",
"144",
"72",
"54",
"49",
"21770",
"Channel_info_start",
"Channel : Mg",
"Points : 0",
"Range : 0.000000 - 0.000000",
"Step : 0.010000",
"Channel_info_end",
"Channel_info_start",
"Channel : Al",
"Points : 0",
"Range : 0.000000 - 0.000000",
"Step : 0.010000",
"Channel_info_end",
"Channel_info_start",
"Channel : Si",
"Points : 0",
"Range : 0.000000 - 0.000000",
"Step : 0.010000",
"Channel_info_end",
"Channel_info_start",
"Channel : P ",
"Points : 0",
"Range : 0.000000 - 0.000000",
"Step : 0.010000",
"Channel_info_end",
"Channel_info_start",
"Channel : S ",
"Points : 0",
"Range : 0.000000 - 0.000000",
"Step : 0.010000",
"Channel_info_end",
"Channel_info_start",
"Channel : Cl",
"Points : 0",
"Range : 0.000000 - 0.000000",
"Step : 0.010000",
"Channel_info_end",
"Channel_info_start",
"Channel : K ",
"Points : 0",
"Range : 0.000000 - 0.000000",
"Step : 0.010000",
"Channel_info_end",
"Channel_info_start",
"Channel : Ca",
"Points : 0",
"Range : 0.000000 - 0.000000",
"Step : 0.010000",
"Channel_info_end",
"Channel_info_start",
"Channel : Ti",
"Points : 0",
"Range : 0.000000 - 0.000000",
"Step : 0.010000",
"Channel_info_end",
"Channel_info_start",
"Channel : V ",
"Points : 0",
"Range : 0.000000 - 0.000000",
"Step : 0.010000",
"Channel_info_end",
"Channel_info_start",
"Channel : Cr",
"Points : 0",
"Range : 0.000000 - 0.000000",
"Step : 0.010000",
"Channel_info_end",
"Channel_info_start",
"Channel : Mn",
"Points : 0",
"Range : 0.000000 - 0.000000",
"Step : 0.010000",
"Channel_info_end",
"Channel_info_start",
"Channel : Fe",
"Points : 0",
"Range : 0.000000 - 0.000000",
"Step : 0.010000",
"Channel_info_end",
"Channel_info_start",
"Channel : Cu",
"Points : 0",
"Range : 0.000000 - 0.000000",
"Step : 0.010000",
"Channel_info_end",
"Channel_info_start",
"Channel : Zn",
"Points : 0",
"Range : 0.000000 - 0.000000",
"Step : 0.010000",
"Channel_info_end",
"Channel_info_start",
"Channel : Sr",
"Points : 0",
"Range : 0.000000 - 0.000000",
"Step : 0.010000",
"Channel_info_end",
"Channel_info_start",
"Channel : Pb",
"Points : 0",
"Range : 0.000000 - 0.000000",
"Step : 0.010000",
"Channel_info_end",
"",
"Qualitative Result",
"--------------------------------------------------------------------------------",
"Element :  Pb, S , Cl, Ca, Ir, Ru",
"",
"Peak List",
"--------------------------------------------------------------------------------",
"Channel               Line        keV     Net Int.(cps/uA)",
"--------------------------------------------------------------------------------",
"Na                    ----         0.60     0.028",
"                      ----         1.83     0.091",
"                      PbMa         2.36     1.197",
"                      S Ka         2.36     0.554",
"                      ClKa         2.66     0.146",
"                      ----         3.12     0.069",
"                      CaKa         3.68     0.168",
"                      CaKb         4.02     0.022",
"                      PbLL         9.17     0.266",
"                      IrLa         9.17     0.099",
"                      PbLa        10.54     6.649",
"                      IrLb1       10.71     0.054",
"                      PbLn        11.32     0.096",
"                      PbLb4       12.24     0.165",
"                      PbLb1       12.60     4.670",
"                      IrLg3       13.03     0.093",
"                      PbLg1       14.72     0.661",
"                      PbLg2       15.13     0.192",
"                      RuKa        19.19     0.147",
"                      ----        20.00     0.147",
"--------------------------------------------------------------------------------",
"",
"Quantitative Result",
"--------------------------------------------------------------------------------",
"Analyte               Result             Std.Dev. Proc.-Calc. Line Intensity(cps/uA)",
"--------------------------------------------------------------------------------",
"====[No. 1 Layer]====< Layer1               >===============================",
"Layer1                   0.000 ug/cm2    -------- Flux       -------- --------",