File: inputs/edxCalibration/edx_raw/2010/junho/Pb 31519.20100526013809.csv
"Sample    : Pb 31519",
"Operator  : luisf",
"Comment  : cubatao-g-policarbonato",
"Group     : kerr2007ag180cal_lt",
"Date       : 2010-05-26 01:34:05",
"",
"Mesurement Condition",
"------------------------------------------------------------------------------------",
"Instrument : 700HS2   Atmosphere : Vac.   Collimator : 10(mm)   Spin : No",
"------------------------------------------------------------------------------------",
"Analyte               TG kV   uA      FI Acq.(keV)  Anal.(keV)  Time(sec)     DT(%)",
"------------------------------------------------------------------------------------",
"Na                    Rh 50  168-Auto Al  0 - 20    0.8 - 1.2   Live -  179   15",
"",
"<Profile>",
"Channel_info_start",
"Channel : Na",
"Points : 2048",
"Range : 0.000000 - 20.48",
"Step : 0.010000",
"Channel_info_end",
"0",
"0",
"0",
"0",
"0",
"24",
"30",
"24",
"77",
"100",
"94",
"52",
"28",
"29",
"35",
"37",
"24",
"30",
"25",
"29",
"33",
"32",
"28",
"38",
"40",
"107",
"296",
"243",
"139",
"161",
"227",
"297",
"483",
"2735",
"4259",
"3476",
"1250",
"358",
"437",
"227",
"77",
"70",
"79",
"84",
"147",
"152",
"78",
"21",
"33",
"32",
"38",
"95",
"280",
"372",
"116",
"38",
"47",
"63",
"70",
"42",
"28",
"26",
"27",
"41",
"38",
"46",
"37",
"39",
"32",
"44",
"44",
"52",
"35",
"42",
"40",
"59",
"54",
"65",
"50",
"46",
"65",
"57",
"63",
"64",
"58",
"49",
"57",
"59",
"70",
"84",
"90",
"90",
"86",
"107",
"89",
"92",
"94",
"94",
"97",
"105",
"101",
"107",
"101",
"108",
"57",
"84",
"80",
"99",
"119",
"112",
"101",
"102",
"96",
"114",
"132",
"114",
"96",
"96",
"86",
"126",
"89",
"90",
"129",
"140",
"124",
"127",
"120",
"116",
"148",
"235",
"459",
"733",
"600",
"300",
"150",
"111",
"119",
"102",
"101",
"128",
"100",
"88",
"119",
"117",
"127",
"147",
"182",
"530",
"1849",
"5513",
"9609",
"10557",
"5868",
"1934",
"437",
"170",
"129",
"109",
"110",
"110",
"156",
"206",
"246",
"233",
"153",
"84",
"89",
"99",
"85",
"104",
"88",
"149",
"200",
"293",
"407",
"498",
"606",
"853",
"2267",
"5269",
"7078",
"6031",
"3125",
"1386",
"611",
"463",
"396",
"322",
"175",
"147",
"99",
"92",
"104",
"77",
"67",
"82",
"60",
"71",
"62",
"61",
"67",
"79",
"72",
"79",
"96",
"102",
"77",
"122",
"272",
"583",
"905",
"1155",
"806",
"402",
"248",
"318",
"367",
"331",
"244",
"162",
"88",
"64",
"57",
"72",
"74",
"73",
"80",
"69",
"62",
"51",
"57",
"55",
"49",
"54",
"41",
"48",
"58",
"46",
"45",
"38",
"45",
"47",
"48",
"52",
"52",
"42",
"39",
"47",
"38",
"50",
"38",
"52",
"29",
"53",
"42",
"47",
"55",
"45",
"53",
"51",
"45",
"65",
"50",
"47",
"65",
"59",
"61",
"73",
"103",
"125",
"131",
"189",
"191",
"237",
"261",
"265",
"195",
"198",
"172",
"123",
"91",
"71",
"55",
"73",
"125",
"169",
"228",
"294",
"218",
"144",
"90",
"66",
"54",
"21936",
"Channel_info_start",
"Channel : Mg",
"Points : 0",
"Range : 0.000000 - 0.000000",
"Step : 0.010000",
"Channel_info_end",
"Channel_info_start",
"Channel : Al",
"Points : 0",
"Range : 0.000000 - 0.000000",
"Step : 0.010000",
"Channel_info_end",
"Channel_info_start",
"Channel : Si",
"Points : 0",
"Range : 0.000000 - 0.000000",
"Step : 0.010000",
"Channel_info_end",
"Channel_info_start",
"Channel : P ",
"Points : 0",
"Range : 0.000000 - 0.000000",
"Step : 0.010000",
"Channel_info_end",
"Channel_info_start",
"Channel : S ",
"Points : 0",
"Range : 0.000000 - 0.000000",
"Step : 0.010000",
"Channel_info_end",
"Channel_info_start",
"Channel : Cl",
"Points : 0",
"Range : 0.000000 - 0.000000",
"Step : 0.010000",
"Channel_info_end",
"Channel_info_start",
"Channel : K ",
"Points : 0",
"Range : 0.000000 - 0.000000",
"Step : 0.010000",
"Channel_info_end",
"Channel_info_start",
"Channel : Ca",
"Points : 0",
"Range : 0.000000 - 0.000000",
"Step : 0.010000",
"Channel_info_end",
"Channel_info_start",
"Channel : Ti",
"Points : 0",
"Range : 0.000000 - 0.000000",
"Step : 0.010000",
"Channel_info_end",
"Channel_info_start",
"Channel : V ",
"Points : 0",
"Range : 0.000000 - 0.000000",
"Step : 0.010000",
"Channel_info_end",
"Channel_info_start",
"Channel : Cr",
"Points : 0",
"Range : 0.000000 - 0.000000",
"Step : 0.010000",
"Channel_info_end",
"Channel_info_start",
"Channel : Mn",
"Points : 0",
"Range : 0.000000 - 0.000000",
"Step : 0.010000",
"Channel_info_end",
"Channel_info_start",
"Channel : Fe",
"Points : 0",
"Range : 0.000000 - 0.000000",
"Step : 0.010000",
"Channel_info_end",
"Channel_info_start",
"Channel : Cu",
"Points : 0",
"Range : 0.000000 - 0.000000",
"Step : 0.010000",
"Channel_info_end",
"Channel_info_start",
"Channel : Zn",
"Points : 0",
"Range : 0.000000 - 0.000000",
"Step : 0.010000",
"Channel_info_end",
"Channel_info_start",
"Channel : Sr",
"Points : 0",
"Range : 0.000000 - 0.000000",
"Step : 0.010000",
"Channel_info_end",
"Channel_info_start",
"Channel : Pb",
"Points : 0",
"Range : 0.000000 - 0.000000",
"Step : 0.010000",
"Channel_info_end",
"",
"Qualitative Result",
"--------------------------------------------------------------------------------",
"Element :  Pb, S , Cl, Ca, Ir, Ru",
"",
"Peak List",
"--------------------------------------------------------------------------------",
"Channel               Line        keV     Net Int.(cps/uA)",
"--------------------------------------------------------------------------------",
"Na                    ----         0.60     0.028",
"                      ----         0.69     0.023",
"                      ----         1.84     0.101",
"                      PbMa         2.37     1.212",
"                      S Ka         2.37     0.514",
"                      ClKa         2.66     0.149",
"                      ----         3.13     0.071",
"                      CaKa         3.68     0.162",
"                      CaKb         4.04     0.017",
"                      PbLL         9.18     0.269",
"                      IrLa         9.18     0.105",
"                      PbLa        10.54     6.736",
"                      IrLb1       10.71     0.058",
"                      PbLn        11.34     0.090",
"                      PbLb4       12.24     0.150",
"                      PbLb1       12.60     4.500",
"                      PbLg1       14.76     0.664",
"                      PbLg2       15.15     0.184",
"                      RuKa        19.18     0.135",
"                      ----        19.45     0.062",
"                      ----        20.00     0.138",
"--------------------------------------------------------------------------------",
"",
"Quantitative Result",
"--------------------------------------------------------------------------------",
"Analyte               Result             Std.Dev. Proc.-Calc. Line Intensity(cps/uA)",
"--------------------------------------------------------------------------------",
"====[No. 1 Layer]====< Layer1               >===============================",
"Layer1                   0.000 ug/cm2    -------- Flux       -------- --------",