File: inputs/edxCalibration/edx_raw/2010/junho/Pt 15770.20100526012601.csv
"Sample    : Pt 15770",
"Operator  : luisf",
"Comment  : cubatao-g-policarbonato",
"Group     : kerr2007ag180cal_lt",
"Date       : 2010-05-26 01:21:55",
"",
"Mesurement Condition",
"------------------------------------------------------------------------------------",
"Instrument : 700HS2   Atmosphere : Vac.   Collimator : 10(mm)   Spin : No",
"------------------------------------------------------------------------------------",
"Analyte               TG kV   uA      FI Acq.(keV)  Anal.(keV)  Time(sec)     DT(%)",
"------------------------------------------------------------------------------------",
"Na                    Rh 50  210-Auto Al  0 - 20    0.8 - 1.2   Live -  180   15",
"",
"<Profile>",
"Channel_info_start",
"Channel : Na",
"Points : 2048",
"Range : 0.000000 - 20.48",
"Step : 0.010000",
"Channel_info_end",
"0",
"0",
"0",
"0",
"0",
"125",
"61",
"41",
"32",
"33",
"30",
"32",
"32",
"24",
"26",
"29",
"30",
"29",
"17",
"45",
"33",
"27",
"147",
"328",
"216",
"179",
"182",
"309",
"681",
"2897",
"3816",
"2052",
"420",
"343",
"269",
"76",
"36",
"68",
"144",
"164",
"73",
"30",
"27",
"26",
"24",
"22",
"21",
"24",
"28",
"13",
"29",
"91",
"353",
"451",
"159",
"39",
"56",
"70",
"59",
"39",
"24",
"25",
"22",
"32",
"36",
"39",
"45",
"45",
"38",
"40",
"27",
"39",
"39",
"37",
"38",
"38",
"35",
"86",
"78",
"93",
"90",
"76",
"76",
"75",
"71",
"66",
"68",
"73",
"71",
"95",
"113",
"119",
"150",
"142",
"138",
"171",
"125",
"146",
"134",
"137",
"120",
"119",
"75",
"86",
"81",
"101",
"109",
"86",
"101",
"89",
"109",
"115",
"93",
"120",
"159",
"205",
"253",
"509",
"771",
"628",
"266",
"164",
"161",
"206",
"184",
"174",
"166",
"182",
"191",
"169",
"171",
"300",
"1219",
"4373",
"9962",
"12074",
"6935",
"2080",
"438",
"178",
"155",
"199",
"255",
"273",
"185",
"133",
"95",
"120",
"102",
"107",
"112",
"118",
"170",
"371",
"644",
"1065",
"2044",
"4319",
"5969",
"5706",
"4193",
"3102",
"1640",
"699",
"390",
"329",
"294",
"207",
"169",
"114",
"96",
"123",
"88",
"91",
"87",
"95",
"80",
"103",
"118",
"117",
"120",
"134",
"237",
"608",
"963",
"1138",
"756",
"399",
"294",
"356",
"382",
"340",
"228",
"118",
"81",
"87",
"98",
"103",
"103",
"88",
"81",
"68",
"68",
"71",
"54",
"66",
"73",
"76",
"83",
"62",
"73",
"57",
"56",
"78",
"72",
"68",
"83",
"47",
"50",
"64",
"62",
"60",
"48",
"61",
"93",
"71",
"59",
"60",
"58",
"70",
"46",
"51",
"72",
"54",
"62",
"60",
"59",
"58",
"54",
"62",
"66",
"53",
"48",
"46",
"64",
"59",
"52",
"53",
"49",
"49",
"44",
"68",
"50",
"60",
"65",
"56",
"46",
"62",
"47",
"68",
"66",
"62",
"70",
"74",
"82",
"80",
"94",
"101",
"119",
"120",
"188",
"262",
"258",
"306",
"300",
"344",
"258",
"227",
"204",
"142",
"103",
"98",
"83",
"96",
"144",
"203",
"252",
"310",
"237",
"166",
"107",
"69",
"57",
"25229",
"Channel_info_start",
"Channel : Mg",
"Points : 0",
"Range : 0.000000 - 0.000000",
"Step : 0.010000",
"Channel_info_end",
"Channel_info_start",
"Channel : Al",
"Points : 0",
"Range : 0.000000 - 0.000000",
"Step : 0.010000",
"Channel_info_end",
"Channel_info_start",
"Channel : Si",
"Points : 0",
"Range : 0.000000 - 0.000000",
"Step : 0.010000",
"Channel_info_end",
"Channel_info_start",
"Channel : P ",
"Points : 0",
"Range : 0.000000 - 0.000000",
"Step : 0.010000",
"Channel_info_end",
"Channel_info_start",
"Channel : S ",
"Points : 0",
"Range : 0.000000 - 0.000000",
"Step : 0.010000",
"Channel_info_end",
"Channel_info_start",
"Channel : Cl",
"Points : 0",
"Range : 0.000000 - 0.000000",
"Step : 0.010000",
"Channel_info_end",
"Channel_info_start",
"Channel : K ",
"Points : 0",
"Range : 0.000000 - 0.000000",
"Step : 0.010000",
"Channel_info_end",
"Channel_info_start",
"Channel : Ca",
"Points : 0",
"Range : 0.000000 - 0.000000",
"Step : 0.010000",
"Channel_info_end",
"Channel_info_start",
"Channel : Ti",
"Points : 0",
"Range : 0.000000 - 0.000000",
"Step : 0.010000",
"Channel_info_end",
"Channel_info_start",
"Channel : V ",
"Points : 0",
"Range : 0.000000 - 0.000000",
"Step : 0.010000",
"Channel_info_end",
"Channel_info_start",
"Channel : Cr",
"Points : 0",
"Range : 0.000000 - 0.000000",
"Step : 0.010000",
"Channel_info_end",
"Channel_info_start",
"Channel : Mn",
"Points : 0",
"Range : 0.000000 - 0.000000",
"Step : 0.010000",
"Channel_info_end",
"Channel_info_start",
"Channel : Fe",
"Points : 0",
"Range : 0.000000 - 0.000000",
"Step : 0.010000",
"Channel_info_end",
"Channel_info_start",
"Channel : Cu",
"Points : 0",
"Range : 0.000000 - 0.000000",
"Step : 0.010000",
"Channel_info_end",
"Channel_info_start",
"Channel : Zn",
"Points : 0",
"Range : 0.000000 - 0.000000",
"Step : 0.010000",
"Channel_info_end",
"Channel_info_start",
"Channel : Sr",
"Points : 0",
"Range : 0.000000 - 0.000000",
"Step : 0.010000",
"Channel_info_end",
"Channel_info_start",
"Channel : Pb",
"Points : 0",
"Range : 0.000000 - 0.000000",
"Step : 0.010000",
"Channel_info_end",
"",
"Qualitative Result",
"--------------------------------------------------------------------------------",
"Element :  Si, Pt, S , Ca, Rh",
"",
"Peak List",
"--------------------------------------------------------------------------------",
"Channel               Line        keV     Net Int.(cps/uA)",
"--------------------------------------------------------------------------------",
"Na                    ----         1.61     0.076",
"                      SiKa         1.77     0.026",
"                      PtMa         2.08     1.250",
"                      S Ka         2.36     0.098",
"                      ----         2.70     0.045",
"                      CaKa         3.68     0.178",
"                      CaKb         4.02     0.024",
"                      ----         6.52     0.031",
"                      PtLL         8.26     0.293",
"                      PtLa         9.44     5.792",
"                      ----         9.99     0.068",
"                      PtLb1       11.06     2.883",
"                      ----        11.28     1.281",
"                      PtLg1       12.96     0.524",
"                      PtLg3       13.28     0.161",
"                      RhKaC       19.26     0.144",
"                      RhKa        20.08     0.141",
"--------------------------------------------------------------------------------",
"",
"Quantitative Result",
"--------------------------------------------------------------------------------",
"Analyte               Result             Std.Dev. Proc.-Calc. Line Intensity(cps/uA)",
"--------------------------------------------------------------------------------",
"====[No. 1 Layer]====< Layer1               >===============================",
"Layer1                   0.000 ug/cm2    -------- Flux       -------- --------",