File: inputs/edxCalibration/edx_raw/2010/junho/Pt 15770.20100611042346.csv
"Sample    : Pt 15770",
"Operator  : Luís",
"Comment  : cubatao-g-policarbonato",
"Group     : kerr2007ag180cal_lt",
"Date       : 2010-06-11 04:19:41",
"",
"Mesurement Condition",
"------------------------------------------------------------------------------------",
"Instrument : 700HS2   Atmosphere : Vac.   Collimator : 10(mm)   Spin : No",
"------------------------------------------------------------------------------------",
"Analyte               TG kV   uA      FI Acq.(keV)  Anal.(keV)  Time(sec)     DT(%)",
"------------------------------------------------------------------------------------",
"Na                    Rh 50  210-Auto Al  0 - 20    0.8 - 1.2   Live -  180   15",
"",
"<Profile>",
"Channel_info_start",
"Channel : Na",
"Points : 2048",
"Range : 0.000000 - 20.48",
"Step : 0.010000",
"Channel_info_end",
"0",
"0",
"0",
"0",
"2",
"83",
"61",
"48",
"28",
"39",
"27",
"24",
"25",
"32",
"20",
"24",
"25",
"22",
"27",
"29",
"25",
"39",
"151",
"299",
"181",
"176",
"201",
"293",
"646",
"2997",
"3749",
"2001",
"419",
"379",
"259",
"78",
"45",
"72",
"128",
"159",
"81",
"26",
"22",
"25",
"29",
"17",
"17",
"33",
"17",
"25",
"27",
"99",
"335",
"492",
"161",
"60",
"54",
"78",
"66",
"41",
"20",
"30",
"21",
"28",
"39",
"27",
"41",
"39",
"21",
"37",
"35",
"41",
"32",
"41",
"45",
"49",
"48",
"65",
"70",
"78",
"77",
"101",
"71",
"90",
"63",
"73",
"58",
"79",
"73",
"89",
"121",
"159",
"150",
"139",
"177",
"143",
"152",
"167",
"108",
"109",
"109",
"107",
"90",
"99",
"76",
"94",
"83",
"98",
"99",
"90",
"106",
"95",
"94",
"126",
"137",
"174",
"267",
"531",
"790",
"574",
"264",
"173",
"156",
"198",
"183",
"155",
"156",
"192",
"153",
"190",
"173",
"346",
"1186",
"4615",
"9900",
"11841",
"6669",
"1943",
"363",
"178",
"175",
"213",
"266",
"255",
"183",
"131",
"123",
"100",
"121",
"104",
"125",
"158",
"183",
"360",
"680",
"1110",
"2079",
"4529",
"6064",
"5622",
"4330",
"2889",
"1590",
"656",
"344",
"308",
"252",
"194",
"152",
"128",
"88",
"102",
"99",
"73",
"101",
"82",
"106",
"97",
"118",
"140",
"112",
"143",
"214",
"645",
"1032",
"1127",
"732",
"453",
"294",
"383",
"402",
"374",
"214",
"119",
"85",
"76",
"81",
"121",
"103",
"99",
"75",
"73",
"66",
"77",
"75",
"88",
"71",
"66",
"67",
"60",
"84",
"69",
"78",
"78",
"66",
"56",
"71",
"74",
"51",
"69",
"57",
"63",
"66",
"65",
"52",
"61",
"64",
"58",
"74",
"57",
"61",
"66",
"62",
"57",
"44",
"57",
"63",
"49",
"66",
"48",
"60",
"49",
"59",
"66",
"58",
"51",
"62",
"52",
"52",
"53",
"48",
"56",
"53",
"54",
"44",
"60",
"48",
"61",
"49",
"53",
"75",
"54",
"41",
"69",
"70",
"63",
"69",
"103",
"143",
"141",
"157",
"266",
"283",
"321",
"296",
"322",
"283",
"259",
"186",
"123",
"94",
"88",
"84",
"99",
"140",
"204",
"246",
"270",
"231",
"138",
"111",
"69",
"66",
"25098",
"Channel_info_start",
"Channel : Mg",
"Points : 0",
"Range : 0.000000 - 0.000000",
"Step : 0.010000",
"Channel_info_end",
"Channel_info_start",
"Channel : Al",
"Points : 0",
"Range : 0.000000 - 0.000000",
"Step : 0.010000",
"Channel_info_end",
"Channel_info_start",
"Channel : Si",
"Points : 0",
"Range : 0.000000 - 0.000000",
"Step : 0.010000",
"Channel_info_end",
"Channel_info_start",
"Channel : P ",
"Points : 0",
"Range : 0.000000 - 0.000000",
"Step : 0.010000",
"Channel_info_end",
"Channel_info_start",
"Channel : S ",
"Points : 0",
"Range : 0.000000 - 0.000000",
"Step : 0.010000",
"Channel_info_end",
"Channel_info_start",
"Channel : Cl",
"Points : 0",
"Range : 0.000000 - 0.000000",
"Step : 0.010000",
"Channel_info_end",
"Channel_info_start",
"Channel : K ",
"Points : 0",
"Range : 0.000000 - 0.000000",
"Step : 0.010000",
"Channel_info_end",
"Channel_info_start",
"Channel : Ca",
"Points : 0",
"Range : 0.000000 - 0.000000",
"Step : 0.010000",
"Channel_info_end",
"Channel_info_start",
"Channel : Ti",
"Points : 0",
"Range : 0.000000 - 0.000000",
"Step : 0.010000",
"Channel_info_end",
"Channel_info_start",
"Channel : V ",
"Points : 0",
"Range : 0.000000 - 0.000000",
"Step : 0.010000",
"Channel_info_end",
"Channel_info_start",
"Channel : Cr",
"Points : 0",
"Range : 0.000000 - 0.000000",
"Step : 0.010000",
"Channel_info_end",
"Channel_info_start",
"Channel : Mn",
"Points : 0",
"Range : 0.000000 - 0.000000",
"Step : 0.010000",
"Channel_info_end",
"Channel_info_start",
"Channel : Fe",
"Points : 0",
"Range : 0.000000 - 0.000000",
"Step : 0.010000",
"Channel_info_end",
"Channel_info_start",
"Channel : Cu",
"Points : 0",
"Range : 0.000000 - 0.000000",
"Step : 0.010000",
"Channel_info_end",
"Channel_info_start",
"Channel : Zn",
"Points : 0",
"Range : 0.000000 - 0.000000",
"Step : 0.010000",
"Channel_info_end",
"Channel_info_start",
"Channel : Sr",
"Points : 0",
"Range : 0.000000 - 0.000000",
"Step : 0.010000",
"Channel_info_end",
"Channel_info_start",
"Channel : Pb",
"Points : 0",
"Range : 0.000000 - 0.000000",
"Step : 0.010000",
"Channel_info_end",
"",
"Qualitative Result",
"--------------------------------------------------------------------------------",
"Element :  Pt, S , Ca, Fe, Ru",
"",
"Peak List",
"--------------------------------------------------------------------------------",
"Channel               Line        keV     Net Int.(cps/uA)",
"--------------------------------------------------------------------------------",
"Na                    ----         1.60     0.074",
"                      PtMa         2.08     1.259",
"                      S Ka         2.34     0.113",
"                      ----         2.70     0.039",
"                      CaKa         3.70     0.163",
"                      CaKb         4.03     0.025",
"                      FeKa         6.40     0.031",
"                      ----         6.72     0.030",
"                      PtLL         8.25     0.304",
"                      PtLa         9.43     5.638",
"                      ----         9.99     0.074",
"                      PtLb4       10.77     0.190",
"                      PtLb1       11.06     2.901",
"                      ----        11.28     1.237",
"                      PtLg1       12.92     0.527",
"                      PtLg2       13.24     0.143",
"                      ----        19.12     0.134",
"                      RuKa        19.33     0.112",
"                      ----        19.98     0.093",
"--------------------------------------------------------------------------------",
"",
"Quantitative Result",
"--------------------------------------------------------------------------------",
"Analyte               Result             Std.Dev. Proc.-Calc. Line Intensity(cps/uA)",
"--------------------------------------------------------------------------------",
"====[No. 1 Layer]====< Layer1               >===============================",
"Layer1                   0.000 ug/cm2    -------- Flux       -------- --------",