File: inputs/edxCalibration/edx_raw/2010/junho/RbI 31511.20100525230918.csv
"Sample    : RbI 31511",
"Operator  : luisf",
"Comment  : cubatao-g-policarbonato",
"Group     : kerr2007ag180cal_lt",
"Date       : 2010-05-25 23:05:15",
"",
"Mesurement Condition",
"------------------------------------------------------------------------------------",
"Instrument : 700HS2   Atmosphere : Vac.   Collimator : 10(mm)   Spin : No",
"------------------------------------------------------------------------------------",
"Analyte               TG kV   uA      FI Acq.(keV)  Anal.(keV)  Time(sec)     DT(%)",
"------------------------------------------------------------------------------------",
"Na                    Rh 50  237-Auto Al  0 - 20    0.8 - 1.2   Live -  179   15",
"",
"<Profile>",
"Channel_info_start",
"Channel : Na",
"Points : 2048",
"Range : 0.000000 - 20.48",
"Step : 0.010000",
"Channel_info_end",
"0",
"0",
"0",
"0",
"0",
"31",
"31",
"47",
"28",
"40",
"20",
"26",
"29",
"27",
"20",
"23",
"18",
"28",
"23",
"28",
"35",
"74",
"66",
"150",
"794",
"812",
"317",
"100",
"100",
"99",
"59",
"76",
"56",
"28",
"33",
"47",
"49",
"43",
"27",
"47",
"31",
"27",
"30",
"27",
"36",
"35",
"30",
"51",
"61",
"181",
"260",
"228",
"651",
"1014",
"472",
"1827",
"5292",
"3920",
"702",
"962",
"3232",
"3364",
"1334",
"588",
"810",
"756",
"236",
"175",
"398",
"449",
"176",
"158",
"291",
"260",
"106",
"63",
"39",
"33",
"51",
"59",
"35",
"43",
"41",
"49",
"43",
"66",
"61",
"93",
"94",
"114",
"125",
"118",
"129",
"111",
"134",
"127",
"137",
"114",
"103",
"116",
"115",
"104",
"78",
"94",
"95",
"92",
"77",
"98",
"82",
"93",
"86",
"95",
"100",
"115",
"138",
"125",
"95",
"99",
"120",
"104",
"99",
"130",
"152",
"161",
"154",
"139",
"112",
"129",
"120",
"126",
"105",
"106",
"110",
"103",
"77",
"95",
"115",
"111",
"102",
"115",
"89",
"99",
"99",
"89",
"91",
"73",
"94",
"112",
"104",
"95",
"115",
"99",
"86",
"131",
"102",
"98",
"120",
"89",
"107",
"102",
"104",
"113",
"87",
"89",
"100",
"111",
"93",
"104",
"88",
"110",
"92",
"91",
"90",
"80",
"102",
"90",
"85",
"82",
"92",
"91",
"104",
"116",
"90",
"106",
"114",
"123",
"143",
"430",
"1620",
"5072",
"9415",
"11875",
"8854",
"3988",
"1189",
"298",
"120",
"93",
"88",
"79",
"79",
"102",
"79",
"63",
"101",
"80",
"108",
"101",
"112",
"111",
"194",
"523",
"1167",
"1737",
"1686",
"1311",
"702",
"393",
"217",
"126",
"87",
"56",
"56",
"72",
"63",
"64",
"68",
"61",
"73",
"55",
"52",
"67",
"66",
"64",
"56",
"59",
"61",
"51",
"46",
"74",
"60",
"57",
"53",
"60",
"64",
"67",
"54",
"67",
"56",
"64",
"61",
"64",
"67",
"59",
"61",
"71",
"62",
"52",
"59",
"61",
"56",
"57",
"76",
"73",
"67",
"67",
"77",
"108",
"129",
"166",
"190",
"264",
"325",
"359",
"366",
"361",
"344",
"272",
"190",
"154",
"106",
"104",
"93",
"105",
"104",
"151",
"226",
"223",
"202",
"148",
"84",
"48",
"65",
"45207",
"Channel_info_start",
"Channel : Mg",
"Points : 0",
"Range : 0.000000 - 0.000000",
"Step : 0.010000",
"Channel_info_end",
"Channel_info_start",
"Channel : Al",
"Points : 0",
"Range : 0.000000 - 0.000000",
"Step : 0.010000",
"Channel_info_end",
"Channel_info_start",
"Channel : Si",
"Points : 0",
"Range : 0.000000 - 0.000000",
"Step : 0.010000",
"Channel_info_end",
"Channel_info_start",
"Channel : P ",
"Points : 0",
"Range : 0.000000 - 0.000000",
"Step : 0.010000",
"Channel_info_end",
"Channel_info_start",
"Channel : S ",
"Points : 0",
"Range : 0.000000 - 0.000000",
"Step : 0.010000",
"Channel_info_end",
"Channel_info_start",
"Channel : Cl",
"Points : 0",
"Range : 0.000000 - 0.000000",
"Step : 0.010000",
"Channel_info_end",
"Channel_info_start",
"Channel : K ",
"Points : 0",
"Range : 0.000000 - 0.000000",
"Step : 0.010000",
"Channel_info_end",
"Channel_info_start",
"Channel : Ca",
"Points : 0",
"Range : 0.000000 - 0.000000",
"Step : 0.010000",
"Channel_info_end",
"Channel_info_start",
"Channel : Ti",
"Points : 0",
"Range : 0.000000 - 0.000000",
"Step : 0.010000",
"Channel_info_end",
"Channel_info_start",
"Channel : V ",
"Points : 0",
"Range : 0.000000 - 0.000000",
"Step : 0.010000",
"Channel_info_end",
"Channel_info_start",
"Channel : Cr",
"Points : 0",
"Range : 0.000000 - 0.000000",
"Step : 0.010000",
"Channel_info_end",
"Channel_info_start",
"Channel : Mn",
"Points : 0",
"Range : 0.000000 - 0.000000",
"Step : 0.010000",
"Channel_info_end",
"Channel_info_start",
"Channel : Fe",
"Points : 0",
"Range : 0.000000 - 0.000000",
"Step : 0.010000",
"Channel_info_end",
"Channel_info_start",
"Channel : Cu",
"Points : 0",
"Range : 0.000000 - 0.000000",
"Step : 0.010000",
"Channel_info_end",
"Channel_info_start",
"Channel : Zn",
"Points : 0",
"Range : 0.000000 - 0.000000",
"Step : 0.010000",
"Channel_info_end",
"Channel_info_start",
"Channel : Sr",
"Points : 0",
"Range : 0.000000 - 0.000000",
"Step : 0.010000",
"Channel_info_end",
"Channel_info_start",
"Channel : Pb",
"Points : 0",
"Range : 0.000000 - 0.000000",
"Step : 0.010000",
"Channel_info_end",
"",
"Qualitative Result",
"--------------------------------------------------------------------------------",
"Element :  Al, Rb, P , I , Ca, Zn, Rh",
"",
"Peak List",
"--------------------------------------------------------------------------------",
"Channel               Line        keV     Net Int.(cps/uA)",
"--------------------------------------------------------------------------------",
"Na                    AlKa         1.49     0.012",
"                      RbLa         1.71     0.243",
"                      P Ka         1.99     0.020",
"                      I LaESC      2.18     0.015",
"                      I LL         3.49     0.042",
"                      CaKa         3.68     0.250",
"                      I La         3.94     1.766",
"                      CaKb         4.01     0.035",
"                      I Lb1        4.23     1.137",
"                      I Lb2        4.52     0.254",
"                      I Lg1        4.81     0.110",
"                      I Lg2        5.06     0.078",
"                      ZnKa         8.65     0.030",
"                      RbKa        13.36     5.526",
"                      RbKb        14.96     0.869",
"                      RhKaC       19.12     0.138",
"                      ----        19.44     0.065",
"                      RhKa        20.05     0.082",
"--------------------------------------------------------------------------------",
"",
"Quantitative Result",
"--------------------------------------------------------------------------------",
"Analyte               Result             Std.Dev. Proc.-Calc. Line Intensity(cps/uA)",
"--------------------------------------------------------------------------------",
"====[No. 1 Layer]====< Layer1               >===============================",
"Layer1                   0.000 ug/cm2    -------- Flux       -------- --------",