File: inputs/edxCalibration/edx_raw/2010/junho/Sb 31509.20100611032406.csv
"Sample    : Sb 31509",
"Operator  : Luís",
"Comment  : cubatao-g-policarbonato",
"Group     : kerr2007ag180cal_lt",
"Date       : 2010-06-11 03:19:55",
"",
"Mesurement Condition",
"------------------------------------------------------------------------------------",
"Instrument : 700HS2   Atmosphere : Vac.   Collimator : 10(mm)   Spin : No",
"------------------------------------------------------------------------------------",
"Analyte               TG kV   uA      FI Acq.(keV)  Anal.(keV)  Time(sec)     DT(%)",
"------------------------------------------------------------------------------------",
"Na                    Rh 50  360-Auto Al  0 - 20    0.8 - 1.2   Live -  179   15",
"",
"<Profile>",
"Channel_info_start",
"Channel : Na",
"Points : 2048",
"Range : 0.000000 - 20.48",
"Step : 0.010000",
"Channel_info_end",
"0",
"0",
"0",
"0",
"2",
"48",
"45",
"49",
"42",
"39",
"36",
"36",
"40",
"40",
"48",
"41",
"42",
"44",
"35",
"49",
"54",
"48",
"59",
"57",
"66",
"85",
"159",
"215",
"152",
"161",
"157",
"110",
"69",
"71",
"58",
"62",
"49",
"64",
"69",
"64",
"78",
"84",
"71",
"93",
"203",
"532",
"532",
"279",
"291",
"510",
"2403",
"11422",
"11788",
"3903",
"4187",
"8967",
"5696",
"2443",
"1764",
"1735",
"602",
"529",
"926",
"626",
"286",
"636",
"612",
"285",
"78",
"72",
"51",
"61",
"72",
"99",
"101",
"115",
"77",
"102",
"75",
"85",
"65",
"91",
"89",
"99",
"138",
"147",
"150",
"157",
"143",
"137",
"158",
"162",
"132",
"122",
"109",
"117",
"133",
"150",
"131",
"149",
"192",
"171",
"182",
"203",
"189",
"191",
"181",
"161",
"180",
"182",
"175",
"197",
"159",
"219",
"184",
"211",
"166",
"154",
"130",
"150",
"172",
"167",
"201",
"237",
"221",
"183",
"179",
"201",
"197",
"194",
"174",
"185",
"206",
"167",
"179",
"177",
"171",
"145",
"132",
"151",
"120",
"170",
"130",
"146",
"144",
"157",
"140",
"151",
"149",
"162",
"161",
"160",
"148",
"173",
"171",
"179",
"171",
"162",
"169",
"149",
"149",
"151",
"152",
"138",
"139",
"164",
"154",
"124",
"154",
"147",
"135",
"150",
"148",
"142",
"131",
"130",
"154",
"119",
"136",
"119",
"126",
"103",
"119",
"126",
"130",
"132",
"107",
"121",
"121",
"115",
"118",
"128",
"101",
"127",
"121",
"124",
"111",
"102",
"117",
"112",
"140",
"117",
"103",
"126",
"128",
"107",
"109",
"123",
"115",
"111",
"110",
"95",
"99",
"100",
"83",
"103",
"91",
"78",
"103",
"89",
"103",
"88",
"100",
"90",
"98",
"93",
"83",
"78",
"96",
"87",
"84",
"96",
"76",
"85",
"84",
"85",
"95",
"89",
"82",
"90",
"93",
"93",
"78",
"79",
"94",
"105",
"85",
"91",
"96",
"84",
"88",
"79",
"85",
"84",
"107",
"97",
"110",
"89",
"93",
"111",
"98",
"86",
"96",
"98",
"136",
"126",
"140",
"167",
"199",
"235",
"333",
"363",
"492",
"534",
"537",
"481",
"463",
"366",
"282",
"255",
"180",
"146",
"136",
"158",
"206",
"244",
"338",
"375",
"307",
"194",
"128",
"79",
"87",
"120932",
"Channel_info_start",
"Channel : Mg",
"Points : 0",
"Range : 0.000000 - 0.000000",
"Step : 0.010000",
"Channel_info_end",
"Channel_info_start",
"Channel : Al",
"Points : 0",
"Range : 0.000000 - 0.000000",
"Step : 0.010000",
"Channel_info_end",
"Channel_info_start",
"Channel : Si",
"Points : 0",
"Range : 0.000000 - 0.000000",
"Step : 0.010000",
"Channel_info_end",
"Channel_info_start",
"Channel : P ",
"Points : 0",
"Range : 0.000000 - 0.000000",
"Step : 0.010000",
"Channel_info_end",
"Channel_info_start",
"Channel : S ",
"Points : 0",
"Range : 0.000000 - 0.000000",
"Step : 0.010000",
"Channel_info_end",
"Channel_info_start",
"Channel : Cl",
"Points : 0",
"Range : 0.000000 - 0.000000",
"Step : 0.010000",
"Channel_info_end",
"Channel_info_start",
"Channel : K ",
"Points : 0",
"Range : 0.000000 - 0.000000",
"Step : 0.010000",
"Channel_info_end",
"Channel_info_start",
"Channel : Ca",
"Points : 0",
"Range : 0.000000 - 0.000000",
"Step : 0.010000",
"Channel_info_end",
"Channel_info_start",
"Channel : Ti",
"Points : 0",
"Range : 0.000000 - 0.000000",
"Step : 0.010000",
"Channel_info_end",
"Channel_info_start",
"Channel : V ",
"Points : 0",
"Range : 0.000000 - 0.000000",
"Step : 0.010000",
"Channel_info_end",
"Channel_info_start",
"Channel : Cr",
"Points : 0",
"Range : 0.000000 - 0.000000",
"Step : 0.010000",
"Channel_info_end",
"Channel_info_start",
"Channel : Mn",
"Points : 0",
"Range : 0.000000 - 0.000000",
"Step : 0.010000",
"Channel_info_end",
"Channel_info_start",
"Channel : Fe",
"Points : 0",
"Range : 0.000000 - 0.000000",
"Step : 0.010000",
"Channel_info_end",
"Channel_info_start",
"Channel : Cu",
"Points : 0",
"Range : 0.000000 - 0.000000",
"Step : 0.010000",
"Channel_info_end",
"Channel_info_start",
"Channel : Zn",
"Points : 0",
"Range : 0.000000 - 0.000000",
"Step : 0.010000",
"Channel_info_end",
"Channel_info_start",
"Channel : Sr",
"Points : 0",
"Range : 0.000000 - 0.000000",
"Step : 0.010000",
"Channel_info_end",
"Channel_info_start",
"Channel : Pb",
"Points : 0",
"Range : 0.000000 - 0.000000",
"Step : 0.010000",
"Channel_info_end",
"",
"Qualitative Result",
"--------------------------------------------------------------------------------",
"Element :  Sb, P , Te, Ru",
"",
"Peak List",
"--------------------------------------------------------------------------------",
"Channel               Line        keV     Net Int.(cps/uA)",
"--------------------------------------------------------------------------------",
"Na                    SbLaESC      1.86     0.028",
"                      P Ka         2.04     0.025",
"                      SbLL         3.19     0.099",
"                      SbLa         3.60     2.864",
"                      SbLb1        3.84     1.461",
"                      TeLa         3.84     0.315",
"                      TeLb1        4.03     0.161",
"                      SbLb2        4.10     0.328",
"                      SbLg1        4.35     0.128",
"                      SbLg2        4.60     0.114",
"                      RuKa        19.21     0.141",
"                      ----        19.45     0.052",
"                      ----        19.91     0.044",
"--------------------------------------------------------------------------------",
"",
"Quantitative Result",
"--------------------------------------------------------------------------------",
"Analyte               Result             Std.Dev. Proc.-Calc. Line Intensity(cps/uA)",
"--------------------------------------------------------------------------------",
"====[No. 1 Layer]====< Layer1               >===============================",
"Layer1                   0.000 ug/cm2    -------- Flux       -------- --------",