File: inputs/edxCalibration/edx_raw/2010/junho/SdSe 15766.20100526000201.csv
"Sample    : SdSe 15766",
"Operator  : luisf",
"Comment  : cubatao-g-policarbonato",
"Group     : kerr2007ag180cal_lt",
"Date       : 2010-05-25 23:58:00",
"",
"Mesurement Condition",
"------------------------------------------------------------------------------------",
"Instrument : 700HS2   Atmosphere : Vac.   Collimator : 10(mm)   Spin : No",
"------------------------------------------------------------------------------------",
"Analyte               TG kV   uA      FI Acq.(keV)  Anal.(keV)  Time(sec)     DT(%)",
"------------------------------------------------------------------------------------",
"Na                    Rh 50  237-Auto Al  0 - 20    0.8 - 1.2   Live -  179   14",
"",
"<Profile>",
"Channel_info_start",
"Channel : Na",
"Points : 2048",
"Range : 0.000000 - 20.48",
"Step : 0.010000",
"Channel_info_end",
"0",
"0",
"0",
"0",
"0",
"30",
"33",
"38",
"28",
"25",
"26",
"13",
"25",
"14",
"29",
"26",
"38",
"46",
"82",
"375",
"806",
"404",
"121",
"67",
"37",
"40",
"25",
"37",
"55",
"63",
"41",
"29",
"39",
"52",
"42",
"32",
"29",
"40",
"77",
"185",
"196",
"158",
"120",
"349",
"2240",
"3954",
"1445",
"1822",
"1799",
"892",
"507",
"524",
"533",
"724",
"288",
"82",
"140",
"187",
"107",
"39",
"28",
"38",
"29",
"41",
"32",
"53",
"46",
"37",
"41",
"41",
"37",
"35",
"36",
"40",
"37",
"45",
"41",
"60",
"63",
"52",
"52",
"80",
"57",
"60",
"77",
"88",
"66",
"86",
"80",
"86",
"88",
"107",
"95",
"103",
"111",
"88",
"84",
"93",
"110",
"88",
"108",
"105",
"94",
"112",
"96",
"93",
"120",
"108",
"99",
"103",
"112",
"102",
"110",
"115",
"133",
"158",
"126",
"104",
"89",
"103",
"88",
"100",
"134",
"160",
"153",
"118",
"127",
"115",
"118",
"108",
"115",
"106",
"100",
"136",
"105",
"124",
"133",
"109",
"99",
"132",
"98",
"109",
"84",
"95",
"121",
"102",
"102",
"110",
"104",
"104",
"96",
"98",
"126",
"108",
"129",
"130",
"214",
"888",
"3967",
"10352",
"13789",
"10122",
"3922",
"1008",
"201",
"149",
"121",
"93",
"102",
"123",
"102",
"132",
"122",
"116",
"132",
"184",
"517",
"1368",
"1882",
"1870",
"1041",
"510",
"185",
"103",
"88",
"82",
"75",
"94",
"90",
"72",
"93",
"64",
"76",
"84",
"84",
"80",
"70",
"82",
"58",
"59",
"77",
"67",
"73",
"65",
"78",
"73",
"71",
"67",
"69",
"53",
"77",
"66",
"82",
"60",
"62",
"60",
"77",
"63",
"56",
"66",
"65",
"49",
"60",
"75",
"68",
"62",
"52",
"63",
"60",
"64",
"49",
"51",
"66",
"75",
"52",
"60",
"67",
"50",
"49",
"60",
"50",
"50",
"51",
"54",
"60",
"55",
"56",
"53",
"69",
"52",
"64",
"50",
"44",
"39",
"48",
"52",
"59",
"59",
"49",
"62",
"59",
"62",
"68",
"58",
"67",
"85",
"68",
"110",
"118",
"150",
"180",
"250",
"294",
"338",
"327",
"353",
"291",
"270",
"184",
"160",
"116",
"94",
"84",
"85",
"100",
"154",
"184",
"205",
"188",
"123",
"86",
"48",
"59",
"84246",
"Channel_info_start",
"Channel : Mg",
"Points : 0",
"Range : 0.000000 - 0.000000",
"Step : 0.010000",
"Channel_info_end",
"Channel_info_start",
"Channel : Al",
"Points : 0",
"Range : 0.000000 - 0.000000",
"Step : 0.010000",
"Channel_info_end",
"Channel_info_start",
"Channel : Si",
"Points : 0",
"Range : 0.000000 - 0.000000",
"Step : 0.010000",
"Channel_info_end",
"Channel_info_start",
"Channel : P ",
"Points : 0",
"Range : 0.000000 - 0.000000",
"Step : 0.010000",
"Channel_info_end",
"Channel_info_start",
"Channel : S ",
"Points : 0",
"Range : 0.000000 - 0.000000",
"Step : 0.010000",
"Channel_info_end",
"Channel_info_start",
"Channel : Cl",
"Points : 0",
"Range : 0.000000 - 0.000000",
"Step : 0.010000",
"Channel_info_end",
"Channel_info_start",
"Channel : K ",
"Points : 0",
"Range : 0.000000 - 0.000000",
"Step : 0.010000",
"Channel_info_end",
"Channel_info_start",
"Channel : Ca",
"Points : 0",
"Range : 0.000000 - 0.000000",
"Step : 0.010000",
"Channel_info_end",
"Channel_info_start",
"Channel : Ti",
"Points : 0",
"Range : 0.000000 - 0.000000",
"Step : 0.010000",
"Channel_info_end",
"Channel_info_start",
"Channel : V ",
"Points : 0",
"Range : 0.000000 - 0.000000",
"Step : 0.010000",
"Channel_info_end",
"Channel_info_start",
"Channel : Cr",
"Points : 0",
"Range : 0.000000 - 0.000000",
"Step : 0.010000",
"Channel_info_end",
"Channel_info_start",
"Channel : Mn",
"Points : 0",
"Range : 0.000000 - 0.000000",
"Step : 0.010000",
"Channel_info_end",
"Channel_info_start",
"Channel : Fe",
"Points : 0",
"Range : 0.000000 - 0.000000",
"Step : 0.010000",
"Channel_info_end",
"Channel_info_start",
"Channel : Cu",
"Points : 0",
"Range : 0.000000 - 0.000000",
"Step : 0.010000",
"Channel_info_end",
"Channel_info_start",
"Channel : Zn",
"Points : 0",
"Range : 0.000000 - 0.000000",
"Step : 0.010000",
"Channel_info_end",
"Channel_info_start",
"Channel : Sr",
"Points : 0",
"Range : 0.000000 - 0.000000",
"Step : 0.010000",
"Channel_info_end",
"Channel_info_start",
"Channel : Pb",
"Points : 0",
"Range : 0.000000 - 0.000000",
"Step : 0.010000",
"Channel_info_end",
"",
"Qualitative Result",
"--------------------------------------------------------------------------------",
"Element :  Se, P , Cd, Ca, Zn, Ru",
"",
"Peak List",
"--------------------------------------------------------------------------------",
"Channel               Line        keV     Net Int.(cps/uA)",
"--------------------------------------------------------------------------------",
"Na                    SeLa         1.40     0.214",
"                      P Ka         2.00     0.014",
"                      CdLL         2.78     0.046",
"                      CdLa         3.13     1.222",
"                      CdLb1        3.32     0.643",
"                      CdLb2        3.55     0.106",
"                      CdLg1        3.69     0.061",
"                      CaKa         3.69     0.137",
"                      CdLg2        3.98     0.037",
"                      ZnKa         8.59     0.029",
"                      SeKa        11.20     6.151",
"                      SeKb        12.48     0.932",
"                      ----        19.08     0.124",
"                      RuKa        19.35     0.114",
"                      ----        20.01     0.067",
"--------------------------------------------------------------------------------",
"",
"Quantitative Result",
"--------------------------------------------------------------------------------",
"Analyte               Result             Std.Dev. Proc.-Calc. Line Intensity(cps/uA)",
"--------------------------------------------------------------------------------",
"====[No. 1 Layer]====< Layer1               >===============================",
"Layer1                   0.000 ug/cm2    -------- Flux       -------- --------",