File: inputs/edxCalibration/edx_raw/2010/junho/Se 15759.20100525224908.csv
"Sample    : Se 15759",
"Operator  : luisf",
"Comment  : cubatao-g-policarbonato",
"Group     : kerr2007ag180cal_lt",
"Date       : 2010-05-25 22:43:11",
"",
"Mesurement Condition",
"------------------------------------------------------------------------------------",
"Instrument : 700HS2   Atmosphere : Vac.   Collimator : 10(mm)   Spin : No",
"------------------------------------------------------------------------------------",
"Analyte               TG kV   uA      FI Acq.(keV)  Anal.(keV)  Time(sec)     DT(%)",
"------------------------------------------------------------------------------------",
"Na                    Rh 50  168-Auto Al  0 - 20    0.8 - 1.2   Live -  179   15",
"",
"<Profile>",
"Channel_info_start",
"Channel : Na",
"Points : 2048",
"Range : 0.000000 - 20.48",
"Step : 0.010000",
"Channel_info_end",
"0",
"0",
"0",
"0",
"0",
"18",
"17",
"30",
"23",
"7",
"11",
"14",
"13",
"17",
"11",
"20",
"16",
"69",
"101",
"548",
"1310",
"624",
"82",
"27",
"21",
"17",
"15",
"22",
"28",
"46",
"16",
"11",
"13",
"13",
"8",
"12",
"10",
"7",
"16",
"16",
"15",
"10",
"11",
"11",
"9",
"7",
"11",
"11",
"5",
"13",
"15",
"67",
"282",
"346",
"115",
"28",
"37",
"75",
"51",
"24",
"25",
"24",
"12",
"24",
"28",
"34",
"34",
"44",
"44",
"28",
"38",
"30",
"28",
"39",
"34",
"29",
"33",
"47",
"38",
"33",
"29",
"44",
"34",
"47",
"38",
"41",
"46",
"56",
"62",
"40",
"59",
"59",
"74",
"67",
"49",
"68",
"67",
"68",
"69",
"79",
"69",
"75",
"61",
"74",
"48",
"60",
"73",
"90",
"62",
"68",
"62",
"79",
"75",
"69",
"110",
"114",
"71",
"57",
"57",
"75",
"69",
"89",
"91",
"108",
"127",
"94",
"77",
"77",
"82",
"64",
"63",
"66",
"65",
"76",
"95",
"86",
"79",
"63",
"71",
"87",
"85",
"89",
"67",
"73",
"63",
"78",
"57",
"71",
"76",
"86",
"71",
"80",
"93",
"118",
"113",
"132",
"287",
"1692",
"6927",
"17828",
"23878",
"17089",
"6449",
"1501",
"252",
"111",
"88",
"86",
"81",
"104",
"80",
"108",
"98",
"106",
"139",
"278",
"872",
"2159",
"3212",
"3128",
"1661",
"689",
"260",
"100",
"68",
"57",
"47",
"54",
"50",
"56",
"47",
"37",
"48",
"56",
"44",
"52",
"47",
"57",
"49",
"41",
"57",
"48",
"38",
"52",
"55",
"44",
"44",
"52",
"42",
"50",
"38",
"47",
"55",
"41",
"36",
"60",
"36",
"44",
"31",
"40",
"42",
"38",
"39",
"42",
"50",
"40",
"40",
"35",
"44",
"56",
"30",
"43",
"42",
"49",
"33",
"44",
"33",
"37",
"37",
"42",
"27",
"40",
"21",
"42",
"40",
"36",
"40",
"28",
"38",
"39",
"33",
"39",
"42",
"43",
"39",
"30",
"43",
"46",
"48",
"36",
"39",
"43",
"38",
"60",
"55",
"62",
"68",
"79",
"81",
"129",
"145",
"197",
"230",
"206",
"240",
"239",
"216",
"183",
"131",
"91",
"100",
"61",
"69",
"64",
"92",
"106",
"120",
"136",
"124",
"80",
"51",
"33",
"37",
"19458",
"Channel_info_start",
"Channel : Mg",
"Points : 0",
"Range : 0.000000 - 0.000000",
"Step : 0.010000",
"Channel_info_end",
"Channel_info_start",
"Channel : Al",
"Points : 0",
"Range : 0.000000 - 0.000000",
"Step : 0.010000",
"Channel_info_end",
"Channel_info_start",
"Channel : Si",
"Points : 0",
"Range : 0.000000 - 0.000000",
"Step : 0.010000",
"Channel_info_end",
"Channel_info_start",
"Channel : P ",
"Points : 0",
"Range : 0.000000 - 0.000000",
"Step : 0.010000",
"Channel_info_end",
"Channel_info_start",
"Channel : S ",
"Points : 0",
"Range : 0.000000 - 0.000000",
"Step : 0.010000",
"Channel_info_end",
"Channel_info_start",
"Channel : Cl",
"Points : 0",
"Range : 0.000000 - 0.000000",
"Step : 0.010000",
"Channel_info_end",
"Channel_info_start",
"Channel : K ",
"Points : 0",
"Range : 0.000000 - 0.000000",
"Step : 0.010000",
"Channel_info_end",
"Channel_info_start",
"Channel : Ca",
"Points : 0",
"Range : 0.000000 - 0.000000",
"Step : 0.010000",
"Channel_info_end",
"Channel_info_start",
"Channel : Ti",
"Points : 0",
"Range : 0.000000 - 0.000000",
"Step : 0.010000",
"Channel_info_end",
"Channel_info_start",
"Channel : V ",
"Points : 0",
"Range : 0.000000 - 0.000000",
"Step : 0.010000",
"Channel_info_end",
"Channel_info_start",
"Channel : Cr",
"Points : 0",
"Range : 0.000000 - 0.000000",
"Step : 0.010000",
"Channel_info_end",
"Channel_info_start",
"Channel : Mn",
"Points : 0",
"Range : 0.000000 - 0.000000",
"Step : 0.010000",
"Channel_info_end",
"Channel_info_start",
"Channel : Fe",
"Points : 0",
"Range : 0.000000 - 0.000000",
"Step : 0.010000",
"Channel_info_end",
"Channel_info_start",
"Channel : Cu",
"Points : 0",
"Range : 0.000000 - 0.000000",
"Step : 0.010000",
"Channel_info_end",
"Channel_info_start",
"Channel : Zn",
"Points : 0",
"Range : 0.000000 - 0.000000",
"Step : 0.010000",
"Channel_info_end",
"Channel_info_start",
"Channel : Sr",
"Points : 0",
"Range : 0.000000 - 0.000000",
"Step : 0.010000",
"Channel_info_end",
"Channel_info_start",
"Channel : Pb",
"Points : 0",
"Range : 0.000000 - 0.000000",
"Step : 0.010000",
"Channel_info_end",
"",
"Qualitative Result",
"--------------------------------------------------------------------------------",
"Element :  Mg, Se, P , Ca, Ru",
"",
"Peak List",
"--------------------------------------------------------------------------------",
"Channel               Line        keV     Net Int.(cps/uA)",
"--------------------------------------------------------------------------------",
"Na                    MgKa         1.20     0.014",
"                      SeLa         1.40     0.494",
"                      P Ka         2.00     0.013",
"                      CaKa         3.69     0.179",
"                      CaKb         4.00     0.026",
"                      SeKa        11.20    14.999",
"                      SeKb        12.49     2.178",
"                      RuKa        19.20     0.141",
"--------------------------------------------------------------------------------",
"",
"Quantitative Result",
"--------------------------------------------------------------------------------",
"Analyte               Result             Std.Dev. Proc.-Calc. Line Intensity(cps/uA)",
"--------------------------------------------------------------------------------",
"====[No. 1 Layer]====< Layer1               >===============================",
"Layer1                   4.547 ug/cm2    -------- Flux       -------- --------",
"Mg                       4.547 ug/cm2    -------- ********** -------- --------",