File: inputs/edxCalibration/edx_raw/2010/junho/Se 31505.20100525225312.csv
"Sample    : Se 31505",
"Operator  : luisf",
"Comment  : cubatao-g-policarbonato",
"Group     : kerr2007ag180cal_lt",
"Date       : 2010-05-25 22:49:07",
"",
"Mesurement Condition",
"------------------------------------------------------------------------------------",
"Instrument : 700HS2   Atmosphere : Vac.   Collimator : 10(mm)   Spin : No",
"------------------------------------------------------------------------------------",
"Analyte               TG kV   uA      FI Acq.(keV)  Anal.(keV)  Time(sec)     DT(%)",
"------------------------------------------------------------------------------------",
"Na                    Rh 50  168-Auto Al  0 - 20    0.8 - 1.2   Live -  179   16",
"",
"<Profile>",
"Channel_info_start",
"Channel : Na",
"Points : 2048",
"Range : 0.000000 - 20.48",
"Step : 0.010000",
"Channel_info_end",
"0",
"0",
"0",
"0",
"0",
"34",
"19",
"24",
"15",
"25",
"17",
"12",
"17",
"11",
"17",
"21",
"15",
"76",
"95",
"594",
"1480",
"648",
"107",
"36",
"22",
"10",
"15",
"21",
"39",
"61",
"19",
"12",
"13",
"7",
"14",
"10",
"17",
"15",
"8",
"4",
"10",
"22",
"14",
"8",
"13",
"10",
"8",
"17",
"7",
"12",
"17",
"83",
"439",
"621",
"185",
"45",
"51",
"99",
"66",
"36",
"14",
"21",
"26",
"36",
"40",
"44",
"37",
"35",
"41",
"26",
"36",
"33",
"32",
"25",
"26",
"33",
"35",
"41",
"46",
"37",
"32",
"40",
"48",
"44",
"42",
"57",
"58",
"50",
"49",
"49",
"58",
"70",
"54",
"66",
"69",
"61",
"64",
"63",
"65",
"72",
"70",
"74",
"53",
"75",
"70",
"73",
"70",
"73",
"77",
"78",
"63",
"75",
"80",
"61",
"90",
"86",
"78",
"72",
"78",
"64",
"73",
"80",
"90",
"139",
"107",
"88",
"78",
"75",
"88",
"68",
"70",
"70",
"63",
"69",
"88",
"85",
"80",
"76",
"70",
"80",
"78",
"78",
"61",
"75",
"72",
"77",
"81",
"78",
"70",
"91",
"68",
"83",
"76",
"93",
"93",
"152",
"340",
"1730",
"7319",
"18905",
"24822",
"17691",
"6792",
"1487",
"233",
"96",
"106",
"82",
"94",
"75",
"82",
"101",
"89",
"135",
"136",
"278",
"899",
"2325",
"3583",
"3224",
"1843",
"704",
"266",
"120",
"60",
"52",
"52",
"44",
"48",
"51",
"45",
"62",
"53",
"49",
"40",
"49",
"45",
"32",
"69",
"42",
"58",
"37",
"36",
"30",
"45",
"54",
"47",
"54",
"61",
"47",
"26",
"52",
"59",
"34",
"29",
"46",
"41",
"39",
"39",
"36",
"37",
"35",
"38",
"28",
"39",
"33",
"38",
"36",
"44",
"32",
"37",
"34",
"30",
"25",
"38",
"24",
"42",
"36",
"33",
"35",
"41",
"36",
"36",
"40",
"39",
"37",
"36",
"40",
"38",
"40",
"35",
"28",
"30",
"36",
"36",
"27",
"35",
"40",
"49",
"49",
"56",
"50",
"41",
"47",
"66",
"49",
"64",
"85",
"93",
"111",
"134",
"188",
"239",
"257",
"251",
"233",
"242",
"180",
"145",
"103",
"87",
"73",
"61",
"59",
"70",
"85",
"121",
"120",
"124",
"83",
"48",
"48",
"34",
"19154",
"Channel_info_start",
"Channel : Mg",
"Points : 0",
"Range : 0.000000 - 0.000000",
"Step : 0.010000",
"Channel_info_end",
"Channel_info_start",
"Channel : Al",
"Points : 0",
"Range : 0.000000 - 0.000000",
"Step : 0.010000",
"Channel_info_end",
"Channel_info_start",
"Channel : Si",
"Points : 0",
"Range : 0.000000 - 0.000000",
"Step : 0.010000",
"Channel_info_end",
"Channel_info_start",
"Channel : P ",
"Points : 0",
"Range : 0.000000 - 0.000000",
"Step : 0.010000",
"Channel_info_end",
"Channel_info_start",
"Channel : S ",
"Points : 0",
"Range : 0.000000 - 0.000000",
"Step : 0.010000",
"Channel_info_end",
"Channel_info_start",
"Channel : Cl",
"Points : 0",
"Range : 0.000000 - 0.000000",
"Step : 0.010000",
"Channel_info_end",
"Channel_info_start",
"Channel : K ",
"Points : 0",
"Range : 0.000000 - 0.000000",
"Step : 0.010000",
"Channel_info_end",
"Channel_info_start",
"Channel : Ca",
"Points : 0",
"Range : 0.000000 - 0.000000",
"Step : 0.010000",
"Channel_info_end",
"Channel_info_start",
"Channel : Ti",
"Points : 0",
"Range : 0.000000 - 0.000000",
"Step : 0.010000",
"Channel_info_end",
"Channel_info_start",
"Channel : V ",
"Points : 0",
"Range : 0.000000 - 0.000000",
"Step : 0.010000",
"Channel_info_end",
"Channel_info_start",
"Channel : Cr",
"Points : 0",
"Range : 0.000000 - 0.000000",
"Step : 0.010000",
"Channel_info_end",
"Channel_info_start",
"Channel : Mn",
"Points : 0",
"Range : 0.000000 - 0.000000",
"Step : 0.010000",
"Channel_info_end",
"Channel_info_start",
"Channel : Fe",
"Points : 0",
"Range : 0.000000 - 0.000000",
"Step : 0.010000",
"Channel_info_end",
"Channel_info_start",
"Channel : Cu",
"Points : 0",
"Range : 0.000000 - 0.000000",
"Step : 0.010000",
"Channel_info_end",
"Channel_info_start",
"Channel : Zn",
"Points : 0",
"Range : 0.000000 - 0.000000",
"Step : 0.010000",
"Channel_info_end",
"Channel_info_start",
"Channel : Sr",
"Points : 0",
"Range : 0.000000 - 0.000000",
"Step : 0.010000",
"Channel_info_end",
"Channel_info_start",
"Channel : Pb",
"Points : 0",
"Range : 0.000000 - 0.000000",
"Step : 0.010000",
"Channel_info_end",
"",
"Qualitative Result",
"--------------------------------------------------------------------------------",
"Element :  Ca, Se, P , Rh",
"",
"Peak List",
"--------------------------------------------------------------------------------",
"Channel               Line        keV     Net Int.(cps/uA)",
"--------------------------------------------------------------------------------",
"Na                    CaLa         0.36     0.009",
"                      ----         0.50     0.007",
"                      ----         1.19     0.021",
"                      SeLa         1.40     0.555",
"                      P Ka         2.01     0.022",
"                      CaKa         3.68     0.289",
"                      CaKb         4.01     0.037",
"                      SeKa        11.20    15.681",
"                      SeKb        12.48     2.309",
"                      RhKaC       19.21     0.132",
"                      ----        19.48     0.058",
"                      RhKa        20.05     0.062",
"--------------------------------------------------------------------------------",
"",
"Quantitative Result",
"--------------------------------------------------------------------------------",
"Analyte               Result             Std.Dev. Proc.-Calc. Line Intensity(cps/uA)",
"--------------------------------------------------------------------------------",
"====[No. 1 Layer]====< Layer1               >===============================",
"Layer1                   0.000 ug/cm2    -------- Flux       -------- --------",