File: inputs/edxCalibration/edx_raw/2010/junho/Se 31505.20100611012624.csv
"Sample    : Se 31505",
"Operator  : Luís",
"Comment  : cubatao-g-policarbonato",
"Group     : kerr2007ag180cal_lt",
"Date       : 2010-06-11 01:22:22",
"",
"Mesurement Condition",
"------------------------------------------------------------------------------------",
"Instrument : 700HS2   Atmosphere : Vac.   Collimator : 10(mm)   Spin : No",
"------------------------------------------------------------------------------------",
"Analyte               TG kV   uA      FI Acq.(keV)  Anal.(keV)  Time(sec)     DT(%)",
"------------------------------------------------------------------------------------",
"Na                    Rh 50  237-Auto Al  0 - 20    0.8 - 1.2   Live -  179   15",
"",
"<Profile>",
"Channel_info_start",
"Channel : Na",
"Points : 2048",
"Range : 0.000000 - 20.48",
"Step : 0.010000",
"Channel_info_end",
"0",
"0",
"0",
"0",
"0",
"22",
"17",
"27",
"30",
"25",
"16",
"25",
"26",
"24",
"29",
"39",
"37",
"33",
"28",
"53",
"113",
"527",
"426",
"155",
"52",
"46",
"24",
"35",
"56",
"68",
"23",
"23",
"31",
"35",
"40",
"41",
"95",
"59",
"31",
"34",
"37",
"49",
"53",
"33",
"31",
"48",
"38",
"34",
"26",
"42",
"40",
"133",
"440",
"689",
"461",
"306",
"142",
"150",
"192",
"421",
"2609",
"6981",
"4224",
"769",
"385",
"2130",
"4430",
"3230",
"1101",
"535",
"1011",
"1048",
"354",
"148",
"255",
"647",
"486",
"196",
"189",
"336",
"282",
"130",
"88",
"68",
"57",
"55",
"56",
"69",
"87",
"100",
"86",
"99",
"95",
"103",
"116",
"124",
"119",
"124",
"138",
"131",
"110",
"108",
"79",
"87",
"98",
"93",
"82",
"101",
"89",
"106",
"94",
"108",
"85",
"125",
"106",
"124",
"126",
"124",
"116",
"107",
"108",
"111",
"144",
"181",
"145",
"145",
"108",
"101",
"107",
"131",
"112",
"129",
"125",
"116",
"115",
"101",
"94",
"100",
"103",
"97",
"107",
"86",
"102",
"95",
"86",
"112",
"101",
"91",
"91",
"115",
"113",
"104",
"92",
"94",
"89",
"106",
"123",
"113",
"114",
"111",
"125",
"101",
"114",
"129",
"140",
"149",
"281",
"1173",
"4218",
"9333",
"11217",
"8391",
"3486",
"793",
"166",
"112",
"114",
"100",
"105",
"99",
"108",
"100",
"100",
"101",
"129",
"116",
"165",
"411",
"924",
"1638",
"1712",
"1184",
"617",
"278",
"151",
"102",
"75",
"76",
"80",
"68",
"64",
"61",
"61",
"76",
"73",
"64",
"63",
"69",
"71",
"71",
"65",
"79",
"67",
"79",
"50",
"69",
"65",
"66",
"72",
"61",
"65",
"56",
"54",
"76",
"66",
"48",
"60",
"56",
"57",
"57",
"79",
"72",
"73",
"51",
"59",
"46",
"61",
"55",
"55",
"64",
"62",
"60",
"61",
"59",
"46",
"44",
"64",
"63",
"62",
"57",
"56",
"66",
"51",
"51",
"66",
"54",
"67",
"71",
"59",
"73",
"72",
"72",
"74",
"63",
"89",
"63",
"86",
"108",
"140",
"145",
"225",
"274",
"340",
"344",
"382",
"358",
"316",
"279",
"195",
"162",
"132",
"111",
"79",
"93",
"126",
"181",
"209",
"242",
"212",
"143",
"75",
"59",
"41",
"37686",
"Channel_info_start",
"Channel : Mg",
"Points : 0",
"Range : 0.000000 - 0.000000",
"Step : 0.010000",
"Channel_info_end",
"Channel_info_start",
"Channel : Al",
"Points : 0",
"Range : 0.000000 - 0.000000",
"Step : 0.010000",
"Channel_info_end",
"Channel_info_start",
"Channel : Si",
"Points : 0",
"Range : 0.000000 - 0.000000",
"Step : 0.010000",
"Channel_info_end",
"Channel_info_start",
"Channel : P ",
"Points : 0",
"Range : 0.000000 - 0.000000",
"Step : 0.010000",
"Channel_info_end",
"Channel_info_start",
"Channel : S ",
"Points : 0",
"Range : 0.000000 - 0.000000",
"Step : 0.010000",
"Channel_info_end",
"Channel_info_start",
"Channel : Cl",
"Points : 0",
"Range : 0.000000 - 0.000000",
"Step : 0.010000",
"Channel_info_end",
"Channel_info_start",
"Channel : K ",
"Points : 0",
"Range : 0.000000 - 0.000000",
"Step : 0.010000",
"Channel_info_end",
"Channel_info_start",
"Channel : Ca",
"Points : 0",
"Range : 0.000000 - 0.000000",
"Step : 0.010000",
"Channel_info_end",
"Channel_info_start",
"Channel : Ti",
"Points : 0",
"Range : 0.000000 - 0.000000",
"Step : 0.010000",
"Channel_info_end",
"Channel_info_start",
"Channel : V ",
"Points : 0",
"Range : 0.000000 - 0.000000",
"Step : 0.010000",
"Channel_info_end",
"Channel_info_start",
"Channel : Cr",
"Points : 0",
"Range : 0.000000 - 0.000000",
"Step : 0.010000",
"Channel_info_end",
"Channel_info_start",
"Channel : Mn",
"Points : 0",
"Range : 0.000000 - 0.000000",
"Step : 0.010000",
"Channel_info_end",
"Channel_info_start",
"Channel : Fe",
"Points : 0",
"Range : 0.000000 - 0.000000",
"Step : 0.010000",
"Channel_info_end",
"Channel_info_start",
"Channel : Cu",
"Points : 0",
"Range : 0.000000 - 0.000000",
"Step : 0.010000",
"Channel_info_end",
"Channel_info_start",
"Channel : Zn",
"Points : 0",
"Range : 0.000000 - 0.000000",
"Step : 0.010000",
"Channel_info_end",
"Channel_info_start",
"Channel : Sr",
"Points : 0",
"Range : 0.000000 - 0.000000",
"Step : 0.010000",
"Channel_info_end",
"Channel_info_start",
"Channel : Pb",
"Points : 0",
"Range : 0.000000 - 0.000000",
"Step : 0.010000",
"Channel_info_end",
"",
"Qualitative Result",
"--------------------------------------------------------------------------------",
"Element :  Br, Cs, Ce, Rh",
"",
"Peak List",
"--------------------------------------------------------------------------------",
"Channel               Line        keV     Net Int.(cps/uA)",
"--------------------------------------------------------------------------------",
"Na                    BrLa         1.50     0.160",
"                      CsLaESC      2.52     0.019",
"                      ----         3.70     0.187",
"                      CsLa         4.28     2.360",
"                      CsLb1        4.63     1.519",
"                      CsLb2        4.94     0.347",
"                      CsLg1        5.26     0.142",
"                      CeLb1        5.26     0.040",
"                      CsLg2        5.54     0.089",
"                      BrKa        11.88     5.244",
"                      BrKb        13.26     0.810",
"                      RhKaC       19.16     0.138",
"                      ----        19.40     0.076",
"                      RhKa        20.08     0.094",
"--------------------------------------------------------------------------------",
"",
"Quantitative Result",
"--------------------------------------------------------------------------------",
"Analyte               Result             Std.Dev. Proc.-Calc. Line Intensity(cps/uA)",
"--------------------------------------------------------------------------------",
"====[No. 1 Layer]====< Layer1               >===============================",
"Layer1                   0.000 ug/cm2    -------- Flux       -------- --------",