File: inputs/edxCalibration/edx_raw/2010/junho/Sg 15767.20100611031957.csv
"Sample    : Sg 15767",
"Operator  : Luís",
"Comment  : cubatao-g-policarbonato",
"Group     : kerr2007ag180cal_lt",
"Date       : 2010-06-11 03:15:44",
"",
"Mesurement Condition",
"------------------------------------------------------------------------------------",
"Instrument : 700HS2   Atmosphere : Vac.   Collimator : 10(mm)   Spin : No",
"------------------------------------------------------------------------------------",
"Analyte               TG kV   uA      FI Acq.(keV)  Anal.(keV)  Time(sec)     DT(%)",
"------------------------------------------------------------------------------------",
"Na                    Rh 50  393-Auto Al  0 - 20    0.8 - 1.2   Live -  180   15",
"",
"<Profile>",
"Channel_info_start",
"Channel : Na",
"Points : 2048",
"Range : 0.000000 - 20.48",
"Step : 0.010000",
"Channel_info_end",
"0",
"0",
"0",
"0",
"0",
"49",
"54",
"47",
"41",
"56",
"33",
"29",
"33",
"34",
"33",
"47",
"45",
"51",
"55",
"49",
"50",
"60",
"64",
"67",
"78",
"90",
"190",
"177",
"121",
"143",
"157",
"112",
"86",
"60",
"68",
"55",
"59",
"58",
"69",
"80",
"75",
"80",
"99",
"98",
"177",
"563",
"656",
"281",
"297",
"539",
"2496",
"11768",
"11659",
"3588",
"4197",
"9065",
"6059",
"2387",
"1791",
"1741",
"641",
"569",
"1002",
"608",
"287",
"645",
"662",
"266",
"104",
"66",
"64",
"54",
"66",
"81",
"83",
"107",
"88",
"70",
"71",
"86",
"74",
"76",
"107",
"150",
"136",
"150",
"162",
"204",
"129",
"162",
"169",
"154",
"156",
"143",
"123",
"136",
"154",
"167",
"132",
"164",
"192",
"141",
"174",
"186",
"183",
"197",
"165",
"202",
"199",
"234",
"234",
"234",
"228",
"214",
"240",
"214",
"217",
"187",
"158",
"163",
"139",
"182",
"206",
"248",
"191",
"165",
"193",
"182",
"192",
"217",
"164",
"204",
"191",
"186",
"188",
"205",
"167",
"169",
"155",
"171",
"180",
"161",
"142",
"168",
"159",
"156",
"167",
"164",
"158",
"193",
"157",
"163",
"164",
"207",
"176",
"185",
"153",
"173",
"155",
"147",
"165",
"142",
"130",
"176",
"150",
"163",
"144",
"169",
"175",
"154",
"157",
"170",
"143",
"142",
"144",
"149",
"130",
"149",
"143",
"144",
"138",
"116",
"141",
"132",
"144",
"120",
"132",
"114",
"151",
"143",
"131",
"143",
"141",
"142",
"134",
"145",
"127",
"107",
"115",
"126",
"151",
"123",
"110",
"120",
"124",
"96",
"90",
"99",
"123",
"115",
"103",
"108",
"103",
"108",
"112",
"111",
"114",
"108",
"112",
"104",
"106",
"120",
"96",
"115",
"90",
"91",
"87",
"98",
"84",
"91",
"100",
"100",
"97",
"117",
"100",
"95",
"100",
"105",
"106",
"108",
"111",
"97",
"119",
"111",
"94",
"104",
"76",
"119",
"106",
"110",
"115",
"100",
"99",
"96",
"91",
"118",
"119",
"98",
"108",
"99",
"100",
"118",
"124",
"122",
"140",
"128",
"145",
"182",
"239",
"259",
"343",
"460",
"547",
"528",
"561",
"586",
"510",
"450",
"349",
"242",
"200",
"166",
"110",
"179",
"209",
"304",
"382",
"395",
"359",
"246",
"143",
"111",
"93",
"126776",
"Channel_info_start",
"Channel : Mg",
"Points : 0",
"Range : 0.000000 - 0.000000",
"Step : 0.010000",
"Channel_info_end",
"Channel_info_start",
"Channel : Al",
"Points : 0",
"Range : 0.000000 - 0.000000",
"Step : 0.010000",
"Channel_info_end",
"Channel_info_start",
"Channel : Si",
"Points : 0",
"Range : 0.000000 - 0.000000",
"Step : 0.010000",
"Channel_info_end",
"Channel_info_start",
"Channel : P ",
"Points : 0",
"Range : 0.000000 - 0.000000",
"Step : 0.010000",
"Channel_info_end",
"Channel_info_start",
"Channel : S ",
"Points : 0",
"Range : 0.000000 - 0.000000",
"Step : 0.010000",
"Channel_info_end",
"Channel_info_start",
"Channel : Cl",
"Points : 0",
"Range : 0.000000 - 0.000000",
"Step : 0.010000",
"Channel_info_end",
"Channel_info_start",
"Channel : K ",
"Points : 0",
"Range : 0.000000 - 0.000000",
"Step : 0.010000",
"Channel_info_end",
"Channel_info_start",
"Channel : Ca",
"Points : 0",
"Range : 0.000000 - 0.000000",
"Step : 0.010000",
"Channel_info_end",
"Channel_info_start",
"Channel : Ti",
"Points : 0",
"Range : 0.000000 - 0.000000",
"Step : 0.010000",
"Channel_info_end",
"Channel_info_start",
"Channel : V ",
"Points : 0",
"Range : 0.000000 - 0.000000",
"Step : 0.010000",
"Channel_info_end",
"Channel_info_start",
"Channel : Cr",
"Points : 0",
"Range : 0.000000 - 0.000000",
"Step : 0.010000",
"Channel_info_end",
"Channel_info_start",
"Channel : Mn",
"Points : 0",
"Range : 0.000000 - 0.000000",
"Step : 0.010000",
"Channel_info_end",
"Channel_info_start",
"Channel : Fe",
"Points : 0",
"Range : 0.000000 - 0.000000",
"Step : 0.010000",
"Channel_info_end",
"Channel_info_start",
"Channel : Cu",
"Points : 0",
"Range : 0.000000 - 0.000000",
"Step : 0.010000",
"Channel_info_end",
"Channel_info_start",
"Channel : Zn",
"Points : 0",
"Range : 0.000000 - 0.000000",
"Step : 0.010000",
"Channel_info_end",
"Channel_info_start",
"Channel : Sr",
"Points : 0",
"Range : 0.000000 - 0.000000",
"Step : 0.010000",
"Channel_info_end",
"Channel_info_start",
"Channel : Pb",
"Points : 0",
"Range : 0.000000 - 0.000000",
"Step : 0.010000",
"Channel_info_end",
"",
"Qualitative Result",
"--------------------------------------------------------------------------------",
"Element :  Sb, Ru",
"",
"Peak List",
"--------------------------------------------------------------------------------",
"Channel               Line        keV     Net Int.(cps/uA)",
"--------------------------------------------------------------------------------",
"Na                    SbLaESC      1.85     0.026",
"                      ----         2.10     0.017",
"                      SbLL         3.20     0.093",
"                      SbLa         3.60     2.661",
"                      SbLb1        3.86     1.640",
"                      SbLb2        4.12     0.275",
"                      SbLg1        4.34     0.123",
"                      SbLg2        4.60     0.106",
"                      RuKa        19.16     0.140",
"--------------------------------------------------------------------------------",
"",
"Quantitative Result",
"--------------------------------------------------------------------------------",
"Analyte               Result             Std.Dev. Proc.-Calc. Line Intensity(cps/uA)",
"--------------------------------------------------------------------------------",
"====[No. 1 Layer]====< Layer1               >===============================",
"Layer1                   0.000 ug/cm2    -------- Flux       -------- --------",