File: inputs/edxCalibration/edx_raw/2010/junho/SiO 15752.20100525201952.csv
"Sample    : SiO 15752",
"Operator  : thiago",
"Comment  : cubatao-g-policarbonato",
"Group     : kerr2007ag180cal_lt",
"Date       : 2010-05-25 20:15:41",
"",
"Mesurement Condition",
"------------------------------------------------------------------------------------",
"Instrument : 700HS2   Atmosphere : Vac.   Collimator : 10(mm)   Spin : No",
"------------------------------------------------------------------------------------",
"Analyte               TG kV   uA      FI Acq.(keV)  Anal.(keV)  Time(sec)     DT(%)",
"------------------------------------------------------------------------------------",
"Na                    Rh 50  970-Auto Al  0 - 20    0.8 - 1.2   Live -  180   15",
"",
"<Profile>",
"Channel_info_start",
"Channel : Na",
"Points : 2048",
"Range : 0.000000 - 20.48",
"Step : 0.010000",
"Channel_info_end",
"0",
"0",
"0",
"0",
"1",
"52",
"43",
"45",
"50",
"39",
"53",
"53",
"43",
"48",
"42",
"38",
"52",
"49",
"54",
"45",
"62",
"93",
"103",
"248",
"3106",
"6817",
"1697",
"246",
"144",
"194",
"78",
"44",
"41",
"40",
"39",
"44",
"31",
"35",
"40",
"43",
"53",
"55",
"38",
"41",
"27",
"35",
"57",
"50",
"51",
"51",
"63",
"350",
"1594",
"1960",
"709",
"205",
"209",
"363",
"287",
"144",
"88",
"90",
"102",
"137",
"163",
"182",
"199",
"181",
"160",
"133",
"143",
"139",
"123",
"149",
"147",
"147",
"161",
"167",
"170",
"174",
"169",
"216",
"178",
"224",
"207",
"260",
"240",
"268",
"248",
"304",
"297",
"342",
"321",
"289",
"318",
"343",
"337",
"328",
"317",
"347",
"346",
"319",
"304",
"345",
"281",
"293",
"278",
"329",
"320",
"310",
"296",
"334",
"359",
"383",
"384",
"426",
"382",
"331",
"315",
"383",
"325",
"375",
"441",
"507",
"461",
"382",
"312",
"340",
"338",
"370",
"301",
"345",
"318",
"321",
"285",
"339",
"342",
"358",
"330",
"350",
"326",
"332",
"302",
"340",
"316",
"286",
"339",
"342",
"293",
"317",
"305",
"311",
"304",
"333",
"296",
"313",
"297",
"339",
"297",
"311",
"353",
"357",
"313",
"315",
"314",
"275",
"276",
"308",
"310",
"307",
"312",
"289",
"290",
"274",
"291",
"303",
"302",
"266",
"292",
"294",
"293",
"275",
"285",
"276",
"259",
"279",
"250",
"268",
"253",
"261",
"266",
"263",
"265",
"276",
"236",
"264",
"265",
"235",
"261",
"271",
"242",
"259",
"270",
"234",
"248",
"261",
"222",
"248",
"226",
"268",
"231",
"216",
"264",
"234",
"187",
"244",
"208",
"208",
"225",
"253",
"212",
"233",
"174",
"201",
"216",
"250",
"200",
"219",
"239",
"212",
"213",
"246",
"202",
"188",
"192",
"201",
"221",
"191",
"196",
"197",
"218",
"191",
"172",
"184",
"188",
"196",
"201",
"173",
"213",
"179",
"184",
"211",
"198",
"195",
"197",
"200",
"244",
"213",
"209",
"218",
"244",
"235",
"237",
"279",
"276",
"319",
"329",
"388",
"501",
"670",
"820",
"1012",
"1257",
"1384",
"1469",
"1478",
"1270",
"1024",
"790",
"638",
"512",
"372",
"305",
"312",
"347",
"421",
"516",
"539",
"521",
"379",
"264",
"209",
"179",
"97842",
"Channel_info_start",
"Channel : Mg",
"Points : 0",
"Range : 0.000000 - 0.000000",
"Step : 0.010000",
"Channel_info_end",
"Channel_info_start",
"Channel : Al",
"Points : 0",
"Range : 0.000000 - 0.000000",
"Step : 0.010000",
"Channel_info_end",
"Channel_info_start",
"Channel : Si",
"Points : 0",
"Range : 0.000000 - 0.000000",
"Step : 0.010000",
"Channel_info_end",
"Channel_info_start",
"Channel : P ",
"Points : 0",
"Range : 0.000000 - 0.000000",
"Step : 0.010000",
"Channel_info_end",
"Channel_info_start",
"Channel : S ",
"Points : 0",
"Range : 0.000000 - 0.000000",
"Step : 0.010000",
"Channel_info_end",
"Channel_info_start",
"Channel : Cl",
"Points : 0",
"Range : 0.000000 - 0.000000",
"Step : 0.010000",
"Channel_info_end",
"Channel_info_start",
"Channel : K ",
"Points : 0",
"Range : 0.000000 - 0.000000",
"Step : 0.010000",
"Channel_info_end",
"Channel_info_start",
"Channel : Ca",
"Points : 0",
"Range : 0.000000 - 0.000000",
"Step : 0.010000",
"Channel_info_end",
"Channel_info_start",
"Channel : Ti",
"Points : 0",
"Range : 0.000000 - 0.000000",
"Step : 0.010000",
"Channel_info_end",
"Channel_info_start",
"Channel : V ",
"Points : 0",
"Range : 0.000000 - 0.000000",
"Step : 0.010000",
"Channel_info_end",
"Channel_info_start",
"Channel : Cr",
"Points : 0",
"Range : 0.000000 - 0.000000",
"Step : 0.010000",
"Channel_info_end",
"Channel_info_start",
"Channel : Mn",
"Points : 0",
"Range : 0.000000 - 0.000000",
"Step : 0.010000",
"Channel_info_end",
"Channel_info_start",
"Channel : Fe",
"Points : 0",
"Range : 0.000000 - 0.000000",
"Step : 0.010000",
"Channel_info_end",
"Channel_info_start",
"Channel : Cu",
"Points : 0",
"Range : 0.000000 - 0.000000",
"Step : 0.010000",
"Channel_info_end",
"Channel_info_start",
"Channel : Zn",
"Points : 0",
"Range : 0.000000 - 0.000000",
"Step : 0.010000",
"Channel_info_end",
"Channel_info_start",
"Channel : Sr",
"Points : 0",
"Range : 0.000000 - 0.000000",
"Step : 0.010000",
"Channel_info_end",
"Channel_info_start",
"Channel : Pb",
"Points : 0",
"Range : 0.000000 - 0.000000",
"Step : 0.010000",
"Channel_info_end",
"",
"Qualitative Result",
"--------------------------------------------------------------------------------",
"Element :  Si, P , Ca, Ti, Zn, Ru",
"",
"Peak List",
"--------------------------------------------------------------------------------",
"Channel               Line        keV     Net Int.(cps/uA)",
"--------------------------------------------------------------------------------",
"Na                    SiKa         1.74     0.444",
"                      P Ka         2.00     0.010",
"                      CaKa         3.68     0.170",
"                      CaKb         4.03     0.021",
"                      TiKa         4.45     0.006",
"                      ----         4.63     0.007",
"                      ZnKa         8.68     0.015",
"                      RuKa        19.16     0.132",
"                      ----        19.44     0.066",
"                      ----        20.04     0.041",
"--------------------------------------------------------------------------------",
"",
"Quantitative Result",
"--------------------------------------------------------------------------------",
"Analyte               Result             Std.Dev. Proc.-Calc. Line Intensity(cps/uA)",
"--------------------------------------------------------------------------------",
"====[No. 1 Layer]====< Layer1               >===============================",
"Layer1                   0.000 ug/cm2    -------- Flux       -------- --------",