File: inputs/edxCalibration/edx_raw/2010/junho/SiO 31493.20100525202401.csv
"Sample    : SiO 31493",
"Operator  : thiago",
"Comment  : cubatao-g-policarbonato",
"Group     : kerr2007ag180cal_lt",
"Date       : 2010-05-25 20:19:51",
"",
"Mesurement Condition",
"------------------------------------------------------------------------------------",
"Instrument : 700HS2   Atmosphere : Vac.   Collimator : 10(mm)   Spin : No",
"------------------------------------------------------------------------------------",
"Analyte               TG kV   uA      FI Acq.(keV)  Anal.(keV)  Time(sec)     DT(%)",
"------------------------------------------------------------------------------------",
"Na                    Rh 50  970-Auto Al  0 - 20    0.8 - 1.2   Live -  179   15",
"",
"<Profile>",
"Channel_info_start",
"Channel : Na",
"Points : 2048",
"Range : 0.000000 - 20.48",
"Step : 0.010000",
"Channel_info_end",
"0",
"0",
"0",
"0",
"1",
"47",
"43",
"61",
"46",
"57",
"34",
"51",
"34",
"44",
"42",
"52",
"51",
"41",
"49",
"50",
"69",
"81",
"93",
"229",
"3326",
"7177",
"1765",
"241",
"227",
"268",
"84",
"50",
"40",
"28",
"25",
"28",
"25",
"36",
"40",
"46",
"57",
"44",
"44",
"35",
"37",
"52",
"41",
"59",
"54",
"57",
"87",
"453",
"2426",
"3400",
"1102",
"209",
"225",
"476",
"323",
"159",
"62",
"80",
"124",
"155",
"170",
"170",
"176",
"156",
"171",
"131",
"130",
"165",
"139",
"144",
"138",
"149",
"124",
"190",
"156",
"166",
"156",
"169",
"178",
"196",
"242",
"228",
"199",
"229",
"229",
"285",
"289",
"329",
"308",
"305",
"280",
"325",
"319",
"334",
"312",
"330",
"359",
"327",
"294",
"278",
"333",
"307",
"295",
"307",
"290",
"322",
"302",
"340",
"354",
"347",
"377",
"418",
"360",
"359",
"349",
"330",
"311",
"355",
"436",
"532",
"466",
"344",
"334",
"349",
"360",
"350",
"328",
"299",
"329",
"321",
"291",
"323",
"328",
"359",
"311",
"334",
"327",
"313",
"293",
"323",
"315",
"312",
"305",
"341",
"287",
"313",
"300",
"309",
"292",
"293",
"302",
"284",
"312",
"332",
"278",
"320",
"292",
"306",
"304",
"310",
"300",
"319",
"255",
"331",
"284",
"302",
"285",
"333",
"272",
"285",
"254",
"286",
"278",
"302",
"260",
"283",
"309",
"253",
"258",
"285",
"260",
"274",
"264",
"214",
"267",
"277",
"227",
"261",
"249",
"264",
"225",
"230",
"234",
"279",
"247",
"251",
"240",
"241",
"219",
"244",
"235",
"246",
"222",
"230",
"232",
"227",
"216",
"231",
"241",
"240",
"244",
"210",
"217",
"196",
"206",
"223",
"229",
"191",
"221",
"214",
"205",
"221",
"208",
"229",
"203",
"226",
"191",
"191",
"191",
"212",
"190",
"187",
"223",
"189",
"194",
"210",
"208",
"202",
"196",
"189",
"196",
"192",
"213",
"203",
"207",
"197",
"180",
"163",
"206",
"222",
"181",
"192",
"230",
"215",
"213",
"223",
"228",
"219",
"208",
"271",
"313",
"304",
"316",
"405",
"475",
"610",
"776",
"1020",
"1303",
"1410",
"1410",
"1432",
"1183",
"1046",
"801",
"668",
"466",
"384",
"312",
"299",
"343",
"409",
"504",
"535",
"509",
"334",
"238",
"175",
"185",
"95971",
"Channel_info_start",
"Channel : Mg",
"Points : 0",
"Range : 0.000000 - 0.000000",
"Step : 0.010000",
"Channel_info_end",
"Channel_info_start",
"Channel : Al",
"Points : 0",
"Range : 0.000000 - 0.000000",
"Step : 0.010000",
"Channel_info_end",
"Channel_info_start",
"Channel : Si",
"Points : 0",
"Range : 0.000000 - 0.000000",
"Step : 0.010000",
"Channel_info_end",
"Channel_info_start",
"Channel : P ",
"Points : 0",
"Range : 0.000000 - 0.000000",
"Step : 0.010000",
"Channel_info_end",
"Channel_info_start",
"Channel : S ",
"Points : 0",
"Range : 0.000000 - 0.000000",
"Step : 0.010000",
"Channel_info_end",
"Channel_info_start",
"Channel : Cl",
"Points : 0",
"Range : 0.000000 - 0.000000",
"Step : 0.010000",
"Channel_info_end",
"Channel_info_start",
"Channel : K ",
"Points : 0",
"Range : 0.000000 - 0.000000",
"Step : 0.010000",
"Channel_info_end",
"Channel_info_start",
"Channel : Ca",
"Points : 0",
"Range : 0.000000 - 0.000000",
"Step : 0.010000",
"Channel_info_end",
"Channel_info_start",
"Channel : Ti",
"Points : 0",
"Range : 0.000000 - 0.000000",
"Step : 0.010000",
"Channel_info_end",
"Channel_info_start",
"Channel : V ",
"Points : 0",
"Range : 0.000000 - 0.000000",
"Step : 0.010000",
"Channel_info_end",
"Channel_info_start",
"Channel : Cr",
"Points : 0",
"Range : 0.000000 - 0.000000",
"Step : 0.010000",
"Channel_info_end",
"Channel_info_start",
"Channel : Mn",
"Points : 0",
"Range : 0.000000 - 0.000000",
"Step : 0.010000",
"Channel_info_end",
"Channel_info_start",
"Channel : Fe",
"Points : 0",
"Range : 0.000000 - 0.000000",
"Step : 0.010000",
"Channel_info_end",
"Channel_info_start",
"Channel : Cu",
"Points : 0",
"Range : 0.000000 - 0.000000",
"Step : 0.010000",
"Channel_info_end",
"Channel_info_start",
"Channel : Zn",
"Points : 0",
"Range : 0.000000 - 0.000000",
"Step : 0.010000",
"Channel_info_end",
"Channel_info_start",
"Channel : Sr",
"Points : 0",
"Range : 0.000000 - 0.000000",
"Step : 0.010000",
"Channel_info_end",
"Channel_info_start",
"Channel : Pb",
"Points : 0",
"Range : 0.000000 - 0.000000",
"Step : 0.010000",
"Channel_info_end",
"",
"Qualitative Result",
"--------------------------------------------------------------------------------",
"Element :  Si, P , Ca",
"",
"Peak List",
"--------------------------------------------------------------------------------",
"Channel               Line        keV     Net Int.(cps/uA)",
"--------------------------------------------------------------------------------",
"Na                    SiKa         1.74     0.471",
"                      P Ka         2.01     0.018",
"                      CaKa         3.68     0.282",
"                      CaKb         4.01     0.035",
"                      ----         4.64     0.007",
"                      ----         8.60     0.019",
"                      ----        19.12     0.129",
"                      ----        19.43     0.069",
"                      ----        20.04     0.042",
"--------------------------------------------------------------------------------",
"",
"Quantitative Result",
"--------------------------------------------------------------------------------",
"Analyte               Result             Std.Dev. Proc.-Calc. Line Intensity(cps/uA)",
"--------------------------------------------------------------------------------",
"====[No. 1 Layer]====< Layer1               >===============================",
"Layer1                   0.000 ug/cm2    -------- Flux       -------- --------",