File: inputs/edxCalibration/edx_raw/2010/junho/SrF2 15761.20100525231321.csv
"Sample    : SrF2 15761",
"Operator  : luisf",
"Comment  : cubatao-g-policarbonato",
"Group     : kerr2007ag180cal_lt",
"Date       : 2010-05-25 23:09:17",
"",
"Mesurement Condition",
"------------------------------------------------------------------------------------",
"Instrument : 700HS2   Atmosphere : Vac.   Collimator : 10(mm)   Spin : No",
"------------------------------------------------------------------------------------",
"Analyte               TG kV   uA      FI Acq.(keV)  Anal.(keV)  Time(sec)     DT(%)",
"------------------------------------------------------------------------------------",
"Na                    Rh 50  237-Auto Al  0 - 20    0.8 - 1.2   Live -  179   15",
"",
"<Profile>",
"Channel_info_start",
"Channel : Na",
"Points : 2048",
"Range : 0.000000 - 20.48",
"Step : 0.010000",
"Channel_info_end",
"0",
"0",
"0",
"0",
"0",
"36",
"23",
"48",
"32",
"41",
"36",
"34",
"30",
"39",
"29",
"21",
"17",
"26",
"13",
"18",
"26",
"42",
"90",
"154",
"158",
"929",
"2095",
"1271",
"366",
"121",
"45",
"29",
"34",
"35",
"14",
"6",
"10",
"15",
"18",
"17",
"21",
"17",
"17",
"14",
"22",
"11",
"6",
"15",
"11",
"15",
"29",
"114",
"361",
"566",
"152",
"49",
"44",
"87",
"67",
"40",
"24",
"34",
"30",
"41",
"55",
"55",
"43",
"44",
"52",
"30",
"28",
"27",
"42",
"38",
"31",
"52",
"35",
"57",
"45",
"41",
"32",
"71",
"68",
"56",
"74",
"80",
"64",
"73",
"76",
"69",
"79",
"86",
"110",
"90",
"83",
"94",
"120",
"94",
"101",
"106",
"86",
"108",
"87",
"90",
"88",
"92",
"114",
"118",
"97",
"113",
"97",
"112",
"93",
"117",
"142",
"209",
"261",
"192",
"129",
"116",
"99",
"121",
"110",
"134",
"130",
"101",
"79",
"102",
"100",
"101",
"87",
"113",
"160",
"146",
"134",
"143",
"110",
"117",
"120",
"110",
"97",
"107",
"101",
"93",
"97",
"94",
"110",
"86",
"81",
"100",
"73",
"93",
"62",
"101",
"82",
"91",
"101",
"107",
"90",
"91",
"96",
"88",
"79",
"97",
"101",
"99",
"81",
"104",
"106",
"90",
"87",
"96",
"55",
"67",
"77",
"82",
"92",
"75",
"66",
"103",
"70",
"63",
"71",
"67",
"81",
"87",
"84",
"87",
"96",
"84",
"79",
"90",
"125",
"102",
"93",
"117",
"138",
"199",
"653",
"2824",
"7861",
"14142",
"15898",
"12425",
"5867",
"1819",
"375",
"145",
"88",
"101",
"84",
"69",
"70",
"80",
"68",
"81",
"83",
"93",
"95",
"108",
"104",
"114",
"187",
"484",
"1259",
"2218",
"2539",
"2177",
"1346",
"756",
"443",
"309",
"152",
"84",
"65",
"50",
"42",
"48",
"57",
"47",
"54",
"45",
"49",
"53",
"52",
"48",
"60",
"51",
"63",
"42",
"52",
"45",
"48",
"51",
"53",
"60",
"62",
"45",
"45",
"55",
"55",
"65",
"57",
"62",
"81",
"81",
"75",
"93",
"108",
"132",
"180",
"274",
"297",
"326",
"324",
"339",
"305",
"259",
"176",
"166",
"125",
"83",
"91",
"89",
"100",
"128",
"167",
"158",
"147",
"107",
"69",
"52",
"50",
"26030",
"Channel_info_start",
"Channel : Mg",
"Points : 0",
"Range : 0.000000 - 0.000000",
"Step : 0.010000",
"Channel_info_end",
"Channel_info_start",
"Channel : Al",
"Points : 0",
"Range : 0.000000 - 0.000000",
"Step : 0.010000",
"Channel_info_end",
"Channel_info_start",
"Channel : Si",
"Points : 0",
"Range : 0.000000 - 0.000000",
"Step : 0.010000",
"Channel_info_end",
"Channel_info_start",
"Channel : P ",
"Points : 0",
"Range : 0.000000 - 0.000000",
"Step : 0.010000",
"Channel_info_end",
"Channel_info_start",
"Channel : S ",
"Points : 0",
"Range : 0.000000 - 0.000000",
"Step : 0.010000",
"Channel_info_end",
"Channel_info_start",
"Channel : Cl",
"Points : 0",
"Range : 0.000000 - 0.000000",
"Step : 0.010000",
"Channel_info_end",
"Channel_info_start",
"Channel : K ",
"Points : 0",
"Range : 0.000000 - 0.000000",
"Step : 0.010000",
"Channel_info_end",
"Channel_info_start",
"Channel : Ca",
"Points : 0",
"Range : 0.000000 - 0.000000",
"Step : 0.010000",
"Channel_info_end",
"Channel_info_start",
"Channel : Ti",
"Points : 0",
"Range : 0.000000 - 0.000000",
"Step : 0.010000",
"Channel_info_end",
"Channel_info_start",
"Channel : V ",
"Points : 0",
"Range : 0.000000 - 0.000000",
"Step : 0.010000",
"Channel_info_end",
"Channel_info_start",
"Channel : Cr",
"Points : 0",
"Range : 0.000000 - 0.000000",
"Step : 0.010000",
"Channel_info_end",
"Channel_info_start",
"Channel : Mn",
"Points : 0",
"Range : 0.000000 - 0.000000",
"Step : 0.010000",
"Channel_info_end",
"Channel_info_start",
"Channel : Fe",
"Points : 0",
"Range : 0.000000 - 0.000000",
"Step : 0.010000",
"Channel_info_end",
"Channel_info_start",
"Channel : Cu",
"Points : 0",
"Range : 0.000000 - 0.000000",
"Step : 0.010000",
"Channel_info_end",
"Channel_info_start",
"Channel : Zn",
"Points : 0",
"Range : 0.000000 - 0.000000",
"Step : 0.010000",
"Channel_info_end",
"Channel_info_start",
"Channel : Sr",
"Points : 0",
"Range : 0.000000 - 0.000000",
"Step : 0.010000",
"Channel_info_end",
"Channel_info_start",
"Channel : Pb",
"Points : 0",
"Range : 0.000000 - 0.000000",
"Step : 0.010000",
"Channel_info_end",
"",
"Qualitative Result",
"--------------------------------------------------------------------------------",
"Element :  Ca, Sr, Ta, Rh",
"",
"Peak List",
"--------------------------------------------------------------------------------",
"Channel               Line        keV     Net Int.(cps/uA)",
"--------------------------------------------------------------------------------",
"Na                    CaLa         0.35     0.006",
"                      ----         0.52     0.008",
"                      ----         0.60     0.007",
"                      ----         1.59     0.031",
"                      SrLa         1.81     0.576",
"                      CaKa         3.68     0.187",
"                      CaKb         4.01     0.021",
"                      TaLa         8.15     0.058",
"                      TaLb1        9.32     0.030",
"                      SrKa        14.12     7.914",
"                      SrKb        15.81     1.230",
"                      RhKaC       19.12     0.125",
"                      ----        19.38     0.083",
"                      RhKa        20.11     0.065",
"--------------------------------------------------------------------------------",
"",
"Quantitative Result",
"--------------------------------------------------------------------------------",
"Analyte               Result             Std.Dev. Proc.-Calc. Line Intensity(cps/uA)",
"--------------------------------------------------------------------------------",
"====[No. 1 Layer]====< Layer1               >===============================",
"Layer1                   0.000 ug/cm2    -------- Flux       -------- --------",