File: inputs/edxCalibration/edx_raw/2010/junho/Te 31510.20100526003900.csv
"Sample    : Te 31510",
"Operator  : luisf",
"Comment  : cubatao-g-policarbonato",
"Group     : kerr2007ag180cal_lt",
"Date       : 2010-05-26 00:34:47",
"",
"Mesurement Condition",
"------------------------------------------------------------------------------------",
"Instrument : 700HS2   Atmosphere : Vac.   Collimator : 10(mm)   Spin : No",
"------------------------------------------------------------------------------------",
"Analyte               TG kV   uA      FI Acq.(keV)  Anal.(keV)  Time(sec)     DT(%)",
"------------------------------------------------------------------------------------",
"Na                    Rh 50  360-Auto Al  0 - 20    0.8 - 1.2   Live -  180   15",
"",
"<Profile>",
"Channel_info_start",
"Channel : Na",
"Points : 2048",
"Range : 0.000000 - 20.48",
"Step : 0.010000",
"Channel_info_end",
"0",
"0",
"0",
"0",
"0",
"48",
"37",
"44",
"43",
"47",
"34",
"47",
"44",
"44",
"48",
"40",
"31",
"46",
"43",
"48",
"35",
"57",
"63",
"51",
"69",
"69",
"60",
"70",
"178",
"293",
"143",
"73",
"111",
"166",
"87",
"57",
"62",
"64",
"67",
"63",
"66",
"89",
"59",
"84",
"89",
"94",
"186",
"573",
"616",
"340",
"220",
"593",
"2242",
"9794",
"14630",
"5683",
"1789",
"7012",
"9302",
"4998",
"1764",
"1944",
"1830",
"613",
"480",
"1099",
"812",
"351",
"529",
"724",
"390",
"148",
"92",
"77",
"66",
"68",
"108",
"121",
"102",
"94",
"66",
"95",
"75",
"82",
"106",
"111",
"117",
"118",
"139",
"143",
"140",
"165",
"150",
"123",
"138",
"131",
"146",
"143",
"153",
"148",
"169",
"150",
"154",
"151",
"186",
"199",
"190",
"205",
"184",
"179",
"153",
"211",
"155",
"175",
"198",
"230",
"208",
"177",
"185",
"183",
"146",
"168",
"193",
"223",
"226",
"155",
"165",
"185",
"187",
"184",
"169",
"192",
"176",
"150",
"150",
"164",
"181",
"166",
"168",
"145",
"158",
"131",
"143",
"157",
"152",
"151",
"127",
"146",
"153",
"151",
"152",
"138",
"160",
"154",
"153",
"155",
"142",
"155",
"156",
"143",
"133",
"136",
"137",
"143",
"142",
"153",
"149",
"126",
"109",
"116",
"126",
"127",
"138",
"122",
"116",
"153",
"132",
"129",
"134",
"114",
"151",
"125",
"111",
"140",
"114",
"122",
"125",
"105",
"131",
"128",
"114",
"132",
"128",
"129",
"122",
"133",
"120",
"106",
"109",
"132",
"127",
"121",
"106",
"117",
"116",
"110",
"94",
"104",
"102",
"103",
"107",
"109",
"110",
"105",
"92",
"116",
"106",
"103",
"95",
"96",
"103",
"95",
"102",
"77",
"114",
"104",
"81",
"107",
"90",
"117",
"89",
"106",
"83",
"83",
"86",
"99",
"109",
"102",
"78",
"93",
"94",
"94",
"98",
"83",
"92",
"86",
"87",
"72",
"87",
"89",
"79",
"89",
"77",
"73",
"108",
"95",
"91",
"98",
"94",
"93",
"105",
"86",
"118",
"103",
"101",
"106",
"121",
"160",
"204",
"235",
"321",
"417",
"445",
"519",
"538",
"489",
"423",
"399",
"302",
"220",
"204",
"163",
"136",
"125",
"205",
"310",
"369",
"379",
"353",
"243",
"143",
"97",
"89",
"103119",
"Channel_info_start",
"Channel : Mg",
"Points : 0",
"Range : 0.000000 - 0.000000",
"Step : 0.010000",
"Channel_info_end",
"Channel_info_start",
"Channel : Al",
"Points : 0",
"Range : 0.000000 - 0.000000",
"Step : 0.010000",
"Channel_info_end",
"Channel_info_start",
"Channel : Si",
"Points : 0",
"Range : 0.000000 - 0.000000",
"Step : 0.010000",
"Channel_info_end",
"Channel_info_start",
"Channel : P ",
"Points : 0",
"Range : 0.000000 - 0.000000",
"Step : 0.010000",
"Channel_info_end",
"Channel_info_start",
"Channel : S ",
"Points : 0",
"Range : 0.000000 - 0.000000",
"Step : 0.010000",
"Channel_info_end",
"Channel_info_start",
"Channel : Cl",
"Points : 0",
"Range : 0.000000 - 0.000000",
"Step : 0.010000",
"Channel_info_end",
"Channel_info_start",
"Channel : K ",
"Points : 0",
"Range : 0.000000 - 0.000000",
"Step : 0.010000",
"Channel_info_end",
"Channel_info_start",
"Channel : Ca",
"Points : 0",
"Range : 0.000000 - 0.000000",
"Step : 0.010000",
"Channel_info_end",
"Channel_info_start",
"Channel : Ti",
"Points : 0",
"Range : 0.000000 - 0.000000",
"Step : 0.010000",
"Channel_info_end",
"Channel_info_start",
"Channel : V ",
"Points : 0",
"Range : 0.000000 - 0.000000",
"Step : 0.010000",
"Channel_info_end",
"Channel_info_start",
"Channel : Cr",
"Points : 0",
"Range : 0.000000 - 0.000000",
"Step : 0.010000",
"Channel_info_end",
"Channel_info_start",
"Channel : Mn",
"Points : 0",
"Range : 0.000000 - 0.000000",
"Step : 0.010000",
"Channel_info_end",
"Channel_info_start",
"Channel : Fe",
"Points : 0",
"Range : 0.000000 - 0.000000",
"Step : 0.010000",
"Channel_info_end",
"Channel_info_start",
"Channel : Cu",
"Points : 0",
"Range : 0.000000 - 0.000000",
"Step : 0.010000",
"Channel_info_end",
"Channel_info_start",
"Channel : Zn",
"Points : 0",
"Range : 0.000000 - 0.000000",
"Step : 0.010000",
"Channel_info_end",
"Channel_info_start",
"Channel : Sr",
"Points : 0",
"Range : 0.000000 - 0.000000",
"Step : 0.010000",
"Channel_info_end",
"Channel_info_start",
"Channel : Pb",
"Points : 0",
"Range : 0.000000 - 0.000000",
"Step : 0.010000",
"Channel_info_end",
"",
"Qualitative Result",
"--------------------------------------------------------------------------------",
"Element :  P , S , Te, K , Ca, Ru",
"",
"Peak List",
"--------------------------------------------------------------------------------",
"Channel               Line        keV     Net Int.(cps/uA)",
"--------------------------------------------------------------------------------",
"Na                    P Ka         2.00     0.044",
"                      S Ka         2.29     0.017",
"                      TeLL         3.34     0.092",
"                      K Ka         3.34     0.028",
"                      CaKa         3.76     3.222",
"                      CaKb         4.04     0.451",
"                      TeLb1        4.04     1.570",
"                      TeLb2        4.30     0.357",
"                      TeLg1        4.58     0.174",
"                      TeLg2        4.81     0.128",
"                      RuKa        19.20     0.136",
"                      ----        19.49     0.054",
"--------------------------------------------------------------------------------",
"",
"Quantitative Result",
"--------------------------------------------------------------------------------",
"Analyte               Result             Std.Dev. Proc.-Calc. Line Intensity(cps/uA)",
"--------------------------------------------------------------------------------",
"====[No. 1 Layer]====< Layer1               >===============================",
"Layer1                   0.000 ug/cm2    -------- Flux       -------- --------",