File: inputs/edxCalibration/edx_raw/2010/junho/Te 31510.20100611033228.csv
"Sample    : Te 31510",
"Operator  : Luís",
"Comment  : cubatao-g-policarbonato",
"Group     : kerr2007ag180cal_lt",
"Date       : 2010-06-11 03:28:15",
"",
"Mesurement Condition",
"------------------------------------------------------------------------------------",
"Instrument : 700HS2   Atmosphere : Vac.   Collimator : 10(mm)   Spin : No",
"------------------------------------------------------------------------------------",
"Analyte               TG kV   uA      FI Acq.(keV)  Anal.(keV)  Time(sec)     DT(%)",
"------------------------------------------------------------------------------------",
"Na                    Rh 50  360-Auto Al  0 - 20    0.8 - 1.2   Live -  180   15",
"",
"<Profile>",
"Channel_info_start",
"Channel : Na",
"Points : 2048",
"Range : 0.000000 - 20.48",
"Step : 0.010000",
"Channel_info_end",
"0",
"0",
"0",
"0",
"0",
"60",
"47",
"43",
"60",
"43",
"36",
"32",
"44",
"55",
"51",
"43",
"34",
"39",
"36",
"43",
"47",
"57",
"50",
"54",
"52",
"44",
"61",
"93",
"202",
"274",
"105",
"96",
"125",
"132",
"100",
"76",
"63",
"80",
"74",
"61",
"56",
"78",
"76",
"79",
"87",
"104",
"191",
"522",
"623",
"301",
"247",
"577",
"2274",
"10167",
"14368",
"5407",
"1773",
"7272",
"8951",
"4767",
"1663",
"1918",
"1649",
"604",
"479",
"1149",
"766",
"305",
"554",
"714",
"360",
"133",
"75",
"48",
"62",
"106",
"110",
"104",
"115",
"112",
"76",
"87",
"87",
"92",
"86",
"137",
"125",
"137",
"128",
"177",
"123",
"164",
"120",
"111",
"145",
"141",
"147",
"152",
"162",
"154",
"149",
"155",
"150",
"197",
"180",
"197",
"197",
"173",
"202",
"158",
"132",
"189",
"156",
"195",
"190",
"221",
"185",
"185",
"161",
"177",
"144",
"181",
"177",
"250",
"227",
"189",
"180",
"202",
"186",
"186",
"169",
"187",
"188",
"163",
"158",
"183",
"181",
"157",
"150",
"159",
"174",
"130",
"128",
"147",
"166",
"146",
"146",
"166",
"141",
"161",
"159",
"167",
"149",
"164",
"140",
"159",
"151",
"186",
"155",
"146",
"142",
"167",
"157",
"158",
"151",
"138",
"118",
"144",
"139",
"130",
"126",
"125",
"142",
"135",
"144",
"151",
"103",
"147",
"130",
"123",
"112",
"137",
"133",
"134",
"121",
"158",
"126",
"140",
"131",
"119",
"110",
"114",
"122",
"117",
"117",
"143",
"118",
"99",
"103",
"135",
"111",
"106",
"110",
"98",
"104",
"122",
"100",
"121",
"104",
"111",
"99",
"103",
"98",
"95",
"104",
"105",
"120",
"99",
"97",
"110",
"103",
"94",
"86",
"110",
"85",
"94",
"86",
"103",
"105",
"72",
"88",
"104",
"104",
"78",
"97",
"114",
"94",
"81",
"97",
"86",
"95",
"91",
"91",
"100",
"76",
"87",
"95",
"92",
"86",
"94",
"82",
"105",
"93",
"81",
"75",
"91",
"97",
"79",
"102",
"123",
"116",
"93",
"91",
"127",
"110",
"158",
"134",
"190",
"186",
"257",
"319",
"365",
"483",
"487",
"499",
"540",
"449",
"348",
"317",
"251",
"181",
"146",
"138",
"131",
"201",
"297",
"379",
"378",
"300",
"204",
"133",
"74",
"82",
"103421",
"Channel_info_start",
"Channel : Mg",
"Points : 0",
"Range : 0.000000 - 0.000000",
"Step : 0.010000",
"Channel_info_end",
"Channel_info_start",
"Channel : Al",
"Points : 0",
"Range : 0.000000 - 0.000000",
"Step : 0.010000",
"Channel_info_end",
"Channel_info_start",
"Channel : Si",
"Points : 0",
"Range : 0.000000 - 0.000000",
"Step : 0.010000",
"Channel_info_end",
"Channel_info_start",
"Channel : P ",
"Points : 0",
"Range : 0.000000 - 0.000000",
"Step : 0.010000",
"Channel_info_end",
"Channel_info_start",
"Channel : S ",
"Points : 0",
"Range : 0.000000 - 0.000000",
"Step : 0.010000",
"Channel_info_end",
"Channel_info_start",
"Channel : Cl",
"Points : 0",
"Range : 0.000000 - 0.000000",
"Step : 0.010000",
"Channel_info_end",
"Channel_info_start",
"Channel : K ",
"Points : 0",
"Range : 0.000000 - 0.000000",
"Step : 0.010000",
"Channel_info_end",
"Channel_info_start",
"Channel : Ca",
"Points : 0",
"Range : 0.000000 - 0.000000",
"Step : 0.010000",
"Channel_info_end",
"Channel_info_start",
"Channel : Ti",
"Points : 0",
"Range : 0.000000 - 0.000000",
"Step : 0.010000",
"Channel_info_end",
"Channel_info_start",
"Channel : V ",
"Points : 0",
"Range : 0.000000 - 0.000000",
"Step : 0.010000",
"Channel_info_end",
"Channel_info_start",
"Channel : Cr",
"Points : 0",
"Range : 0.000000 - 0.000000",
"Step : 0.010000",
"Channel_info_end",
"Channel_info_start",
"Channel : Mn",
"Points : 0",
"Range : 0.000000 - 0.000000",
"Step : 0.010000",
"Channel_info_end",
"Channel_info_start",
"Channel : Fe",
"Points : 0",
"Range : 0.000000 - 0.000000",
"Step : 0.010000",
"Channel_info_end",
"Channel_info_start",
"Channel : Cu",
"Points : 0",
"Range : 0.000000 - 0.000000",
"Step : 0.010000",
"Channel_info_end",
"Channel_info_start",
"Channel : Zn",
"Points : 0",
"Range : 0.000000 - 0.000000",
"Step : 0.010000",
"Channel_info_end",
"Channel_info_start",
"Channel : Sr",
"Points : 0",
"Range : 0.000000 - 0.000000",
"Step : 0.010000",
"Channel_info_end",
"Channel_info_start",
"Channel : Pb",
"Points : 0",
"Range : 0.000000 - 0.000000",
"Step : 0.010000",
"Channel_info_end",
"",
"Qualitative Result",
"--------------------------------------------------------------------------------",
"Element :  P , S , Te, Ca, Ru",
"",
"Peak List",
"--------------------------------------------------------------------------------",
"Channel               Line        keV     Net Int.(cps/uA)",
"--------------------------------------------------------------------------------",
"Na                    P Ka         2.01     0.051",
"                      S Ka         2.29     0.016",
"                      TeLL         3.32     0.104",
"                      CaKa         3.76     3.189",
"                      CaKb         4.04     0.446",
"                      TeLb1        4.04     1.582",
"                      TeLb2        4.30     0.358",
"                      TeLg1        4.56     0.177",
"                      TeLg2        4.82     0.120",
"                      RuKa        19.24     0.131",
"--------------------------------------------------------------------------------",
"",
"Quantitative Result",
"--------------------------------------------------------------------------------",
"Analyte               Result             Std.Dev. Proc.-Calc. Line Intensity(cps/uA)",
"--------------------------------------------------------------------------------",
"====[No. 1 Layer]====< Layer1               >===============================",
"Layer1                   0.000 ug/cm2    -------- Flux       -------- --------",