File: inputs/edxCalibration/edx_raw/2010/junho/Te 31510.20100626145425.csv
"Sample    : Te 31510",
"Operator  : thiago",
"Comment  : cubatao-g-policarbonato",
"Group     : kerr2007ag180cal_lt",
"Date       : 2010-06-26 14:48:16",
"",
"Mesurement Condition",
"------------------------------------------------------------------------------------",
"Instrument : 700HS2   Atmosphere : Vac.   Collimator : 10(mm)   Spin : No",
"------------------------------------------------------------------------------------",
"Analyte               TG kV   uA      FI Acq.(keV)  Anal.(keV)  Time(sec)     DT(%)",
"------------------------------------------------------------------------------------",
"Na                    Rh 50  360-Auto Al  0 - 20    0.8 - 1.2   Live -  180   15",
"",
"<Profile>",
"Channel_info_start",
"Channel : Na",
"Points : 2048",
"Range : 0.000000 - 20.48",
"Step : 0.010000",
"Channel_info_end",
"0",
"0",
"0",
"0",
"0",
"32",
"29",
"44",
"47",
"48",
"41",
"41",
"49",
"46",
"55",
"44",
"43",
"45",
"31",
"47",
"50",
"76",
"57",
"50",
"56",
"68",
"50",
"76",
"181",
"289",
"109",
"61",
"115",
"139",
"96",
"58",
"76",
"60",
"56",
"75",
"62",
"95",
"64",
"73",
"85",
"122",
"135",
"531",
"682",
"347",
"236",
"550",
"2027",
"8972",
"14411",
"5798",
"1671",
"6623",
"9165",
"4982",
"1767",
"1869",
"1803",
"646",
"465",
"1046",
"875",
"362",
"472",
"754",
"446",
"165",
"89",
"65",
"89",
"87",
"93",
"82",
"104",
"115",
"82",
"80",
"75",
"74",
"113",
"93",
"107",
"129",
"133",
"145",
"136",
"148",
"134",
"135",
"115",
"124",
"146",
"169",
"140",
"139",
"144",
"159",
"156",
"183",
"177",
"161",
"169",
"188",
"167",
"181",
"167",
"171",
"199",
"211",
"203",
"215",
"183",
"177",
"157",
"144",
"135",
"171",
"178",
"221",
"226",
"182",
"170",
"204",
"189",
"179",
"179",
"190",
"159",
"144",
"158",
"166",
"169",
"149",
"152",
"164",
"152",
"180",
"109",
"149",
"152",
"139",
"148",
"154",
"169",
"153",
"155",
"163",
"172",
"166",
"146",
"160",
"164",
"132",
"125",
"157",
"167",
"157",
"127",
"148",
"130",
"127",
"143",
"149",
"147",
"127",
"131",
"134",
"129",
"124",
"128",
"141",
"120",
"130",
"133",
"127",
"136",
"124",
"139",
"127",
"129",
"106",
"137",
"130",
"137",
"115",
"113",
"128",
"155",
"135",
"117",
"115",
"113",
"106",
"120",
"119",
"135",
"120",
"115",
"120",
"107",
"91",
"123",
"98",
"117",
"95",
"112",
"105",
"112",
"122",
"98",
"87",
"104",
"98",
"98",
"104",
"105",
"87",
"86",
"104",
"107",
"96",
"87",
"116",
"96",
"105",
"86",
"94",
"93",
"85",
"85",
"96",
"95",
"89",
"93",
"88",
"83",
"109",
"95",
"76",
"103",
"69",
"76",
"71",
"94",
"101",
"93",
"104",
"84",
"73",
"81",
"84",
"106",
"89",
"116",
"98",
"84",
"109",
"79",
"88",
"116",
"128",
"135",
"141",
"192",
"235",
"297",
"374",
"452",
"501",
"575",
"491",
"523",
"392",
"304",
"257",
"192",
"149",
"115",
"135",
"170",
"232",
"335",
"397",
"350",
"250",
"131",
"89",
"83",
"102243",
"Channel_info_start",
"Channel : Mg",
"Points : 0",
"Range : 0.000000 - 0.000000",
"Step : 0.010000",
"Channel_info_end",
"Channel_info_start",
"Channel : Al",
"Points : 0",
"Range : 0.000000 - 0.000000",
"Step : 0.010000",
"Channel_info_end",
"Channel_info_start",
"Channel : Si",
"Points : 0",
"Range : 0.000000 - 0.000000",
"Step : 0.010000",
"Channel_info_end",
"Channel_info_start",
"Channel : P ",
"Points : 0",
"Range : 0.000000 - 0.000000",
"Step : 0.010000",
"Channel_info_end",
"Channel_info_start",
"Channel : S ",
"Points : 0",
"Range : 0.000000 - 0.000000",
"Step : 0.010000",
"Channel_info_end",
"Channel_info_start",
"Channel : Cl",
"Points : 0",
"Range : 0.000000 - 0.000000",
"Step : 0.010000",
"Channel_info_end",
"Channel_info_start",
"Channel : K ",
"Points : 0",
"Range : 0.000000 - 0.000000",
"Step : 0.010000",
"Channel_info_end",
"Channel_info_start",
"Channel : Ca",
"Points : 0",
"Range : 0.000000 - 0.000000",
"Step : 0.010000",
"Channel_info_end",
"Channel_info_start",
"Channel : Ti",
"Points : 0",
"Range : 0.000000 - 0.000000",
"Step : 0.010000",
"Channel_info_end",
"Channel_info_start",
"Channel : V ",
"Points : 0",
"Range : 0.000000 - 0.000000",
"Step : 0.010000",
"Channel_info_end",
"Channel_info_start",
"Channel : Cr",
"Points : 0",
"Range : 0.000000 - 0.000000",
"Step : 0.010000",
"Channel_info_end",
"Channel_info_start",
"Channel : Mn",
"Points : 0",
"Range : 0.000000 - 0.000000",
"Step : 0.010000",
"Channel_info_end",
"Channel_info_start",
"Channel : Fe",
"Points : 0",
"Range : 0.000000 - 0.000000",
"Step : 0.010000",
"Channel_info_end",
"Channel_info_start",
"Channel : Cu",
"Points : 0",
"Range : 0.000000 - 0.000000",
"Step : 0.010000",
"Channel_info_end",
"Channel_info_start",
"Channel : Zn",
"Points : 0",
"Range : 0.000000 - 0.000000",
"Step : 0.010000",
"Channel_info_end",
"Channel_info_start",
"Channel : Sr",
"Points : 0",
"Range : 0.000000 - 0.000000",
"Step : 0.010000",
"Channel_info_end",
"Channel_info_start",
"Channel : Pb",
"Points : 0",
"Range : 0.000000 - 0.000000",
"Step : 0.010000",
"Channel_info_end",
"",
"Qualitative Result",
"--------------------------------------------------------------------------------",
"Element :  P , S , Te, K , Ca, Rh",
"",
"Peak List",
"--------------------------------------------------------------------------------",
"Channel               Line        keV     Net Int.(cps/uA)",
"--------------------------------------------------------------------------------",
"Na                    P Ka         2.02     0.044",
"                      S Ka         2.28     0.017",
"                      TeLL         3.34     0.091",
"                      K Ka         3.34     0.017",
"                      CaKa         3.76     3.118",
"                      CaKb         4.04     0.437",
"                      TeLb1        4.04     1.554",
"                      TeLb2        4.31     0.355",
"                      TeLg1        4.57     0.178",
"                      TeLg2        4.82     0.126",
"                      RhKaC       19.20     0.127",
"                      ----        19.45     0.061",
"                      RhKa        20.05     0.095",
"--------------------------------------------------------------------------------",
"",
"Quantitative Result",
"--------------------------------------------------------------------------------",
"Analyte               Result             Std.Dev. Proc.-Calc. Line Intensity(cps/uA)",
"--------------------------------------------------------------------------------",
"====[No. 1 Layer]====< Layer1               >===============================",
"Layer1                   0.000 ug/cm2    -------- Flux       -------- --------",