File: inputs/edxCalibration/edx_raw/2010/junho/Ti 15755.20100525210819.csv
"Sample    : Ti 15755",
"Operator  : luisf",
"Comment  : cubatao-g-policarbonato",
"Group     : kerr2007ag180cal_lt",
"Date       : 2010-05-25 21:04:06",
"",
"Mesurement Condition",
"------------------------------------------------------------------------------------",
"Instrument : 700HS2   Atmosphere : Vac.   Collimator : 10(mm)   Spin : No",
"------------------------------------------------------------------------------------",
"Analyte               TG kV   uA      FI Acq.(keV)  Anal.(keV)  Time(sec)     DT(%)",
"------------------------------------------------------------------------------------",
"Na                    Rh 50  312-Auto Al  0 - 20    0.8 - 1.2   Live -  179   15",
"",
"<Profile>",
"Channel_info_start",
"Channel : Na",
"Points : 2048",
"Range : 0.000000 - 20.48",
"Step : 0.010000",
"Channel_info_end",
"0",
"0",
"0",
"0",
"1",
"14",
"21",
"15",
"18",
"16",
"20",
"30",
"16",
"13",
"23",
"23",
"16",
"21",
"31",
"19",
"18",
"18",
"21",
"20",
"27",
"33",
"25",
"23",
"55",
"67",
"36",
"28",
"23",
"28",
"27",
"25",
"31",
"37",
"73",
"266",
"255",
"61",
"33",
"34",
"37",
"52",
"55",
"45",
"30",
"33",
"62",
"153",
"544",
"724",
"272",
"192",
"150",
"233",
"190",
"165",
"178",
"254",
"803",
"9398",
"34185",
"29308",
"5748",
"470",
"311",
"1391",
"4082",
"3896",
"975",
"117",
"59",
"58",
"45",
"56",
"62",
"60",
"55",
"76",
"69",
"62",
"71",
"85",
"70",
"81",
"112",
"107",
"111",
"133",
"115",
"122",
"102",
"113",
"115",
"110",
"96",
"81",
"99",
"112",
"89",
"106",
"96",
"112",
"110",
"98",
"113",
"85",
"103",
"101",
"100",
"113",
"136",
"141",
"168",
"119",
"105",
"113",
"157",
"147",
"141",
"182",
"160",
"125",
"119",
"123",
"144",
"155",
"145",
"111",
"108",
"106",
"110",
"148",
"108",
"124",
"111",
"135",
"121",
"82",
"110",
"118",
"107",
"112",
"104",
"107",
"115",
"96",
"102",
"103",
"105",
"108",
"112",
"130",
"90",
"101",
"111",
"124",
"103",
"104",
"88",
"105",
"99",
"101",
"91",
"132",
"106",
"111",
"115",
"112",
"80",
"92",
"90",
"106",
"94",
"75",
"94",
"115",
"103",
"104",
"92",
"98",
"102",
"95",
"93",
"96",
"94",
"104",
"88",
"83",
"88",
"90",
"87",
"68",
"85",
"93",
"72",
"89",
"79",
"77",
"91",
"73",
"85",
"80",
"71",
"69",
"75",
"84",
"65",
"75",
"75",
"88",
"80",
"67",
"81",
"89",
"75",
"83",
"77",
"79",
"79",
"75",
"68",
"73",
"79",
"60",
"62",
"75",
"52",
"66",
"73",
"57",
"57",
"67",
"60",
"52",
"52",
"71",
"61",
"62",
"59",
"79",
"68",
"47",
"65",
"54",
"76",
"68",
"67",
"69",
"68",
"56",
"58",
"77",
"87",
"76",
"73",
"80",
"75",
"76",
"81",
"92",
"90",
"126",
"112",
"105",
"148",
"203",
"278",
"354",
"403",
"411",
"480",
"445",
"434",
"306",
"289",
"175",
"152",
"115",
"117",
"102",
"123",
"163",
"202",
"185",
"181",
"111",
"73",
"60",
"52",
"31575",
"Channel_info_start",
"Channel : Mg",
"Points : 0",
"Range : 0.000000 - 0.000000",
"Step : 0.010000",
"Channel_info_end",
"Channel_info_start",
"Channel : Al",
"Points : 0",
"Range : 0.000000 - 0.000000",
"Step : 0.010000",
"Channel_info_end",
"Channel_info_start",
"Channel : Si",
"Points : 0",
"Range : 0.000000 - 0.000000",
"Step : 0.010000",
"Channel_info_end",
"Channel_info_start",
"Channel : P ",
"Points : 0",
"Range : 0.000000 - 0.000000",
"Step : 0.010000",
"Channel_info_end",
"Channel_info_start",
"Channel : S ",
"Points : 0",
"Range : 0.000000 - 0.000000",
"Step : 0.010000",
"Channel_info_end",
"Channel_info_start",
"Channel : Cl",
"Points : 0",
"Range : 0.000000 - 0.000000",
"Step : 0.010000",
"Channel_info_end",
"Channel_info_start",
"Channel : K ",
"Points : 0",
"Range : 0.000000 - 0.000000",
"Step : 0.010000",
"Channel_info_end",
"Channel_info_start",
"Channel : Ca",
"Points : 0",
"Range : 0.000000 - 0.000000",
"Step : 0.010000",
"Channel_info_end",
"Channel_info_start",
"Channel : Ti",
"Points : 0",
"Range : 0.000000 - 0.000000",
"Step : 0.010000",
"Channel_info_end",
"Channel_info_start",
"Channel : V ",
"Points : 0",
"Range : 0.000000 - 0.000000",
"Step : 0.010000",
"Channel_info_end",
"Channel_info_start",
"Channel : Cr",
"Points : 0",
"Range : 0.000000 - 0.000000",
"Step : 0.010000",
"Channel_info_end",
"Channel_info_start",
"Channel : Mn",
"Points : 0",
"Range : 0.000000 - 0.000000",
"Step : 0.010000",
"Channel_info_end",
"Channel_info_start",
"Channel : Fe",
"Points : 0",
"Range : 0.000000 - 0.000000",
"Step : 0.010000",
"Channel_info_end",
"Channel_info_start",
"Channel : Cu",
"Points : 0",
"Range : 0.000000 - 0.000000",
"Step : 0.010000",
"Channel_info_end",
"Channel_info_start",
"Channel : Zn",
"Points : 0",
"Range : 0.000000 - 0.000000",
"Step : 0.010000",
"Channel_info_end",
"Channel_info_start",
"Channel : Sr",
"Points : 0",
"Range : 0.000000 - 0.000000",
"Step : 0.010000",
"Channel_info_end",
"Channel_info_start",
"Channel : Pb",
"Points : 0",
"Range : 0.000000 - 0.000000",
"Step : 0.010000",
"Channel_info_end",
"",
"Qualitative Result",
"--------------------------------------------------------------------------------",
"Element :  P , Ti, Rh",
"",
"Peak List",
"--------------------------------------------------------------------------------",
"Channel               Line        keV     Net Int.(cps/uA)",
"--------------------------------------------------------------------------------",
"Na                    P Ka         2.01     0.014",
"                      TiKaESC      2.76     0.069",
"                      ----         3.68     0.178",
"                      TiKa         4.51     9.606",
"                      TiKb         4.92     1.214",
"                      RhKaC       19.20     0.140",
"                      ----        19.45     0.062",
"                      RhKa        20.07     0.065",
"--------------------------------------------------------------------------------",
"",
"Quantitative Result",
"--------------------------------------------------------------------------------",
"Analyte               Result             Std.Dev. Proc.-Calc. Line Intensity(cps/uA)",
"--------------------------------------------------------------------------------",
"====[No. 1 Layer]====< Layer1               >===============================",
"Layer1                   0.000 ug/cm2    -------- Flux       -------- --------",