File: inputs/edxCalibration/edx_raw/2010/junho/Ti 31498.20100525211218.csv
"Sample    : Ti 31498",
"Operator  : luisf",
"Comment  : cubatao-g-policarbonato",
"Group     : kerr2007ag180cal_lt",
"Date       : 2010-05-25 21:08:18",
"",
"Mesurement Condition",
"------------------------------------------------------------------------------------",
"Instrument : 700HS2   Atmosphere : Vac.   Collimator : 10(mm)   Spin : No",
"------------------------------------------------------------------------------------",
"Analyte               TG kV   uA      FI Acq.(keV)  Anal.(keV)  Time(sec)     DT(%)",
"------------------------------------------------------------------------------------",
"Na                    Rh 50  268-Auto Al  0 - 20    0.8 - 1.2   Live -  179   14",
"",
"<Profile>",
"Channel_info_start",
"Channel : Na",
"Points : 2048",
"Range : 0.000000 - 20.48",
"Step : 0.010000",
"Channel_info_end",
"0",
"0",
"0",
"0",
"1",
"15",
"17",
"26",
"16",
"15",
"16",
"18",
"16",
"15",
"11",
"11",
"15",
"9",
"16",
"16",
"22",
"25",
"28",
"21",
"24",
"36",
"17",
"21",
"66",
"98",
"35",
"29",
"16",
"16",
"26",
"27",
"34",
"25",
"63",
"229",
"217",
"68",
"37",
"30",
"47",
"56",
"38",
"44",
"38",
"47",
"54",
"177",
"791",
"1019",
"299",
"139",
"163",
"260",
"198",
"174",
"161",
"240",
"768",
"7959",
"29391",
"25789",
"5136",
"414",
"246",
"1188",
"3597",
"3364",
"851",
"98",
"49",
"46",
"53",
"49",
"51",
"42",
"39",
"56",
"52",
"55",
"62",
"76",
"90",
"73",
"79",
"85",
"81",
"109",
"115",
"76",
"103",
"91",
"104",
"86",
"81",
"91",
"88",
"99",
"67",
"87",
"92",
"73",
"82",
"99",
"83",
"103",
"86",
"78",
"92",
"93",
"134",
"127",
"116",
"101",
"114",
"101",
"117",
"89",
"126",
"144",
"129",
"103",
"107",
"103",
"137",
"138",
"120",
"101",
"81",
"92",
"102",
"106",
"104",
"101",
"100",
"94",
"91",
"96",
"93",
"87",
"91",
"85",
"95",
"85",
"92",
"93",
"101",
"77",
"93",
"105",
"80",
"101",
"88",
"94",
"88",
"78",
"82",
"82",
"80",
"89",
"75",
"91",
"72",
"81",
"90",
"77",
"73",
"91",
"83",
"108",
"74",
"83",
"80",
"77",
"76",
"75",
"72",
"73",
"76",
"67",
"76",
"98",
"65",
"99",
"86",
"68",
"78",
"79",
"99",
"92",
"52",
"63",
"72",
"72",
"67",
"67",
"76",
"65",
"61",
"65",
"70",
"73",
"69",
"88",
"68",
"68",
"68",
"70",
"69",
"60",
"67",
"60",
"70",
"55",
"66",
"60",
"59",
"75",
"63",
"73",
"53",
"62",
"60",
"65",
"56",
"52",
"61",
"57",
"52",
"59",
"70",
"72",
"51",
"49",
"52",
"46",
"44",
"49",
"63",
"64",
"67",
"53",
"50",
"66",
"55",
"52",
"55",
"42",
"46",
"49",
"49",
"47",
"57",
"56",
"60",
"60",
"77",
"73",
"60",
"69",
"76",
"79",
"91",
"124",
"127",
"152",
"245",
"267",
"326",
"390",
"392",
"416",
"350",
"280",
"198",
"190",
"118",
"95",
"83",
"90",
"103",
"113",
"163",
"193",
"153",
"92",
"65",
"40",
"60",
"26419",
"Channel_info_start",
"Channel : Mg",
"Points : 0",
"Range : 0.000000 - 0.000000",
"Step : 0.010000",
"Channel_info_end",
"Channel_info_start",
"Channel : Al",
"Points : 0",
"Range : 0.000000 - 0.000000",
"Step : 0.010000",
"Channel_info_end",
"Channel_info_start",
"Channel : Si",
"Points : 0",
"Range : 0.000000 - 0.000000",
"Step : 0.010000",
"Channel_info_end",
"Channel_info_start",
"Channel : P ",
"Points : 0",
"Range : 0.000000 - 0.000000",
"Step : 0.010000",
"Channel_info_end",
"Channel_info_start",
"Channel : S ",
"Points : 0",
"Range : 0.000000 - 0.000000",
"Step : 0.010000",
"Channel_info_end",
"Channel_info_start",
"Channel : Cl",
"Points : 0",
"Range : 0.000000 - 0.000000",
"Step : 0.010000",
"Channel_info_end",
"Channel_info_start",
"Channel : K ",
"Points : 0",
"Range : 0.000000 - 0.000000",
"Step : 0.010000",
"Channel_info_end",
"Channel_info_start",
"Channel : Ca",
"Points : 0",
"Range : 0.000000 - 0.000000",
"Step : 0.010000",
"Channel_info_end",
"Channel_info_start",
"Channel : Ti",
"Points : 0",
"Range : 0.000000 - 0.000000",
"Step : 0.010000",
"Channel_info_end",
"Channel_info_start",
"Channel : V ",
"Points : 0",
"Range : 0.000000 - 0.000000",
"Step : 0.010000",
"Channel_info_end",
"Channel_info_start",
"Channel : Cr",
"Points : 0",
"Range : 0.000000 - 0.000000",
"Step : 0.010000",
"Channel_info_end",
"Channel_info_start",
"Channel : Mn",
"Points : 0",
"Range : 0.000000 - 0.000000",
"Step : 0.010000",
"Channel_info_end",
"Channel_info_start",
"Channel : Fe",
"Points : 0",
"Range : 0.000000 - 0.000000",
"Step : 0.010000",
"Channel_info_end",
"Channel_info_start",
"Channel : Cu",
"Points : 0",
"Range : 0.000000 - 0.000000",
"Step : 0.010000",
"Channel_info_end",
"Channel_info_start",
"Channel : Zn",
"Points : 0",
"Range : 0.000000 - 0.000000",
"Step : 0.010000",
"Channel_info_end",
"Channel_info_start",
"Channel : Sr",
"Points : 0",
"Range : 0.000000 - 0.000000",
"Step : 0.010000",
"Channel_info_end",
"Channel_info_start",
"Channel : Pb",
"Points : 0",
"Range : 0.000000 - 0.000000",
"Step : 0.010000",
"Channel_info_end",
"",
"Qualitative Result",
"--------------------------------------------------------------------------------",
"Element :  P , Ti, Ca, Ru",
"",
"Peak List",
"--------------------------------------------------------------------------------",
"Channel               Line        keV     Net Int.(cps/uA)",
"--------------------------------------------------------------------------------",
"Na                    P Ka         2.00     0.022",
"                      TiKaESC      2.76     0.073",
"                      CaKa         3.69     0.298",
"                      CaKb         3.99     0.037",
"                      TiKa         4.51     9.787",
"                      TiKb         4.93     1.253",
"                      RuKa        19.17     0.136",
"                      ----        19.40     0.084",
"                      ----        20.00     0.048",
"--------------------------------------------------------------------------------",
"",
"Quantitative Result",
"--------------------------------------------------------------------------------",
"Analyte               Result             Std.Dev. Proc.-Calc. Line Intensity(cps/uA)",
"--------------------------------------------------------------------------------",
"====[No. 1 Layer]====< Layer1               >===============================",
"Layer1                   0.000 ug/cm2    -------- Flux       -------- --------",