File: inputs/edxCalibration/edx_raw/2010/junho/WO3 15769.20100526012157.csv
"Sample    : WO3 15769",
"Operator  : luisf",
"Comment  : cubatao-g-policarbonato",
"Group     : kerr2007ag180cal_lt",
"Date       : 2010-05-26 01:16:02",
"",
"Mesurement Condition",
"------------------------------------------------------------------------------------",
"Instrument : 700HS2   Atmosphere : Vac.   Collimator : 10(mm)   Spin : No",
"------------------------------------------------------------------------------------",
"Analyte               TG kV   uA      FI Acq.(keV)  Anal.(keV)  Time(sec)     DT(%)",
"------------------------------------------------------------------------------------",
"Na                    Rh 50  210-Auto Al  0 - 20    0.8 - 1.2   Live -  179   14",
"",
"<Profile>",
"Channel_info_start",
"Channel : Na",
"Points : 2048",
"Range : 0.000000 - 20.48",
"Step : 0.010000",
"Channel_info_end",
"0",
"0",
"0",
"0",
"0",
"26",
"25",
"17",
"19",
"19",
"18",
"22",
"21",
"23",
"13",
"14",
"24",
"29",
"26",
"104",
"240",
"99",
"71",
"128",
"377",
"2256",
"3267",
"1237",
"257",
"283",
"142",
"57",
"51",
"105",
"87",
"29",
"18",
"16",
"22",
"31",
"26",
"24",
"10",
"15",
"17",
"16",
"19",
"17",
"14",
"18",
"26",
"82",
"361",
"433",
"152",
"54",
"47",
"92",
"60",
"29",
"27",
"34",
"34",
"40",
"43",
"45",
"62",
"53",
"60",
"45",
"49",
"57",
"49",
"54",
"40",
"54",
"48",
"52",
"50",
"68",
"74",
"69",
"64",
"77",
"66",
"82",
"73",
"73",
"96",
"108",
"113",
"101",
"97",
"128",
"105",
"128",
"113",
"127",
"132",
"102",
"115",
"118",
"123",
"138",
"341",
"710",
"594",
"331",
"130",
"129",
"119",
"134",
"140",
"147",
"148",
"174",
"219",
"743",
"3337",
"9333",
"11941",
"7312",
"1856",
"468",
"351",
"310",
"200",
"162",
"120",
"104",
"113",
"126",
"119",
"183",
"301",
"846",
"2252",
"4589",
"6363",
"5444",
"2994",
"2329",
"2299",
"1916",
"843",
"340",
"234",
"179",
"128",
"109",
"97",
"106",
"88",
"93",
"95",
"140",
"148",
"156",
"167",
"391",
"830",
"1167",
"946",
"510",
"352",
"408",
"461",
"398",
"277",
"166",
"96",
"146",
"152",
"118",
"80",
"89",
"81",
"91",
"79",
"80",
"79",
"68",
"55",
"67",
"76",
"77",
"75",
"79",
"69",
"92",
"64",
"68",
"81",
"65",
"78",
"53",
"66",
"78",
"76",
"84",
"68",
"60",
"69",
"62",
"71",
"50",
"56",
"55",
"56",
"60",
"57",
"58",
"65",
"68",
"62",
"64",
"71",
"63",
"68",
"71",
"67",
"57",
"57",
"67",
"62",
"68",
"54",
"50",
"56",
"60",
"62",
"52",
"48",
"57",
"49",
"45",
"53",
"54",
"48",
"55",
"61",
"56",
"66",
"48",
"45",
"45",
"50",
"65",
"66",
"42",
"49",
"44",
"38",
"55",
"40",
"75",
"70",
"67",
"69",
"70",
"55",
"61",
"78",
"55",
"68",
"69",
"77",
"96",
"88",
"142",
"162",
"237",
"305",
"307",
"304",
"322",
"291",
"247",
"208",
"165",
"125",
"90",
"76",
"77",
"121",
"167",
"216",
"277",
"209",
"128",
"81",
"55",
"54",
"23739",
"Channel_info_start",
"Channel : Mg",
"Points : 0",
"Range : 0.000000 - 0.000000",
"Step : 0.010000",
"Channel_info_end",
"Channel_info_start",
"Channel : Al",
"Points : 0",
"Range : 0.000000 - 0.000000",
"Step : 0.010000",
"Channel_info_end",
"Channel_info_start",
"Channel : Si",
"Points : 0",
"Range : 0.000000 - 0.000000",
"Step : 0.010000",
"Channel_info_end",
"Channel_info_start",
"Channel : P ",
"Points : 0",
"Range : 0.000000 - 0.000000",
"Step : 0.010000",
"Channel_info_end",
"Channel_info_start",
"Channel : S ",
"Points : 0",
"Range : 0.000000 - 0.000000",
"Step : 0.010000",
"Channel_info_end",
"Channel_info_start",
"Channel : Cl",
"Points : 0",
"Range : 0.000000 - 0.000000",
"Step : 0.010000",
"Channel_info_end",
"Channel_info_start",
"Channel : K ",
"Points : 0",
"Range : 0.000000 - 0.000000",
"Step : 0.010000",
"Channel_info_end",
"Channel_info_start",
"Channel : Ca",
"Points : 0",
"Range : 0.000000 - 0.000000",
"Step : 0.010000",
"Channel_info_end",
"Channel_info_start",
"Channel : Ti",
"Points : 0",
"Range : 0.000000 - 0.000000",
"Step : 0.010000",
"Channel_info_end",
"Channel_info_start",
"Channel : V ",
"Points : 0",
"Range : 0.000000 - 0.000000",
"Step : 0.010000",
"Channel_info_end",
"Channel_info_start",
"Channel : Cr",
"Points : 0",
"Range : 0.000000 - 0.000000",
"Step : 0.010000",
"Channel_info_end",
"Channel_info_start",
"Channel : Mn",
"Points : 0",
"Range : 0.000000 - 0.000000",
"Step : 0.010000",
"Channel_info_end",
"Channel_info_start",
"Channel : Fe",
"Points : 0",
"Range : 0.000000 - 0.000000",
"Step : 0.010000",
"Channel_info_end",
"Channel_info_start",
"Channel : Cu",
"Points : 0",
"Range : 0.000000 - 0.000000",
"Step : 0.010000",
"Channel_info_end",
"Channel_info_start",
"Channel : Zn",
"Points : 0",
"Range : 0.000000 - 0.000000",
"Step : 0.010000",
"Channel_info_end",
"Channel_info_start",
"Channel : Sr",
"Points : 0",
"Range : 0.000000 - 0.000000",
"Step : 0.010000",
"Channel_info_end",
"Channel_info_start",
"Channel : Pb",
"Points : 0",
"Range : 0.000000 - 0.000000",
"Step : 0.010000",
"Channel_info_end",
"",
"Qualitative Result",
"--------------------------------------------------------------------------------",
"Element :  Se, W , P , S , Ca, Yb, Ru",
"",
"Peak List",
"--------------------------------------------------------------------------------",
"Channel               Line        keV     Net Int.(cps/uA)",
"--------------------------------------------------------------------------------",
"Na                    SeLa         1.39     0.051",
"                      W Ma         1.80     1.067",
"                      P Ka         2.03     0.072",
"                      S Ka         2.34     0.028",
"                      CaKa         3.69     0.171",
"                      CaKb         4.00     0.022",
"                      W LL         7.38     0.166",
"                      YbLa         7.38     0.113",
"                      W La         8.40     4.592",
"                      YbLb1        8.40     0.955",
"                      YbLb2        8.75     0.065",
"                      W Lb1        9.67     2.960",
"                      W Lb2        9.96     0.996",
"                      W Lg1       11.28     0.522",
"                      W Lg2       11.64     0.177",
"                      RuKa        19.16     0.131",
"                      ----        19.40     0.082",
"                      ----        19.92     0.051",
"--------------------------------------------------------------------------------",
"",
"Quantitative Result",
"--------------------------------------------------------------------------------",
"Analyte               Result             Std.Dev. Proc.-Calc. Line Intensity(cps/uA)",
"--------------------------------------------------------------------------------",
"====[No. 1 Layer]====< Layer1               >===============================",
"Layer1                   0.000 ug/cm2    -------- Flux       -------- --------",