File: inputs/edxCalibration/edx_raw/2010/junho/Y6F3 31518.20100611035933.csv
"Sample    : Y6F3 31518",
"Operator  : Luís",
"Comment  : cubatao-g-policarbonato",
"Group     : kerr2007ag180cal_lt",
"Date       : 2010-06-11 03:55:31",
"",
"Mesurement Condition",
"------------------------------------------------------------------------------------",
"Instrument : 700HS2   Atmosphere : Vac.   Collimator : 10(mm)   Spin : No",
"------------------------------------------------------------------------------------",
"Analyte               TG kV   uA      FI Acq.(keV)  Anal.(keV)  Time(sec)     DT(%)",
"------------------------------------------------------------------------------------",
"Na                    Rh 50  237-Auto Al  0 - 20    0.8 - 1.2   Live -  179   14",
"",
"<Profile>",
"Channel_info_start",
"Channel : Na",
"Points : 2048",
"Range : 0.000000 - 20.48",
"Step : 0.010000",
"Channel_info_end",
"0",
"0",
"0",
"0",
"0",
"12",
"23",
"26",
"16",
"22",
"8",
"20",
"16",
"18",
"16",
"22",
"63",
"172",
"75",
"36",
"78",
"753",
"2176",
"1414",
"242",
"265",
"169",
"55",
"126",
"152",
"43",
"25",
"26",
"37",
"31",
"26",
"18",
"16",
"13",
"29",
"22",
"16",
"9",
"11",
"16",
"18",
"21",
"16",
"23",
"25",
"24",
"98",
"550",
"830",
"253",
"59",
"75",
"136",
"116",
"44",
"36",
"42",
"42",
"63",
"66",
"77",
"76",
"57",
"56",
"40",
"60",
"55",
"47",
"65",
"53",
"63",
"62",
"61",
"61",
"62",
"75",
"90",
"87",
"83",
"65",
"89",
"111",
"98",
"78",
"111",
"104",
"181",
"314",
"691",
"596",
"312",
"173",
"152",
"119",
"127",
"151",
"191",
"216",
"636",
"3212",
"9815",
"12358",
"6701",
"1621",
"423",
"229",
"164",
"146",
"137",
"216",
"349",
"511",
"810",
"2268",
"5833",
"7402",
"5296",
"2348",
"1476",
"1758",
"2327",
"1450",
"582",
"244",
"164",
"136",
"158",
"217",
"263",
"298",
"223",
"208",
"285",
"589",
"1146",
"1187",
"652",
"304",
"349",
"525",
"427",
"318",
"172",
"134",
"153",
"144",
"121",
"112",
"112",
"111",
"122",
"128",
"100",
"87",
"118",
"113",
"108",
"91",
"111",
"89",
"90",
"87",
"99",
"112",
"85",
"87",
"93",
"95",
"99",
"95",
"89",
"75",
"79",
"81",
"91",
"73",
"95",
"91",
"95",
"91",
"86",
"76",
"67",
"80",
"89",
"93",
"85",
"69",
"77",
"64",
"82",
"89",
"78",
"69",
"101",
"74",
"81",
"77",
"66",
"65",
"67",
"77",
"92",
"64",
"81",
"85",
"76",
"86",
"79",
"60",
"69",
"63",
"67",
"54",
"65",
"62",
"51",
"66",
"65",
"63",
"68",
"62",
"70",
"59",
"68",
"68",
"62",
"65",
"67",
"52",
"62",
"53",
"69",
"66",
"53",
"62",
"66",
"63",
"63",
"66",
"51",
"69",
"83",
"56",
"70",
"47",
"62",
"53",
"49",
"57",
"67",
"79",
"55",
"50",
"67",
"68",
"61",
"63",
"82",
"66",
"83",
"101",
"98",
"118",
"169",
"207",
"248",
"298",
"320",
"359",
"335",
"267",
"247",
"197",
"155",
"119",
"80",
"100",
"79",
"128",
"183",
"260",
"253",
"209",
"113",
"91",
"64",
"53",
"25819",
"Channel_info_start",
"Channel : Mg",
"Points : 0",
"Range : 0.000000 - 0.000000",
"Step : 0.010000",
"Channel_info_end",
"Channel_info_start",
"Channel : Al",
"Points : 0",
"Range : 0.000000 - 0.000000",
"Step : 0.010000",
"Channel_info_end",
"Channel_info_start",
"Channel : Si",
"Points : 0",
"Range : 0.000000 - 0.000000",
"Step : 0.010000",
"Channel_info_end",
"Channel_info_start",
"Channel : P ",
"Points : 0",
"Range : 0.000000 - 0.000000",
"Step : 0.010000",
"Channel_info_end",
"Channel_info_start",
"Channel : S ",
"Points : 0",
"Range : 0.000000 - 0.000000",
"Step : 0.010000",
"Channel_info_end",
"Channel_info_start",
"Channel : Cl",
"Points : 0",
"Range : 0.000000 - 0.000000",
"Step : 0.010000",
"Channel_info_end",
"Channel_info_start",
"Channel : K ",
"Points : 0",
"Range : 0.000000 - 0.000000",
"Step : 0.010000",
"Channel_info_end",
"Channel_info_start",
"Channel : Ca",
"Points : 0",
"Range : 0.000000 - 0.000000",
"Step : 0.010000",
"Channel_info_end",
"Channel_info_start",
"Channel : Ti",
"Points : 0",
"Range : 0.000000 - 0.000000",
"Step : 0.010000",
"Channel_info_end",
"Channel_info_start",
"Channel : V ",
"Points : 0",
"Range : 0.000000 - 0.000000",
"Step : 0.010000",
"Channel_info_end",
"Channel_info_start",
"Channel : Cr",
"Points : 0",
"Range : 0.000000 - 0.000000",
"Step : 0.010000",
"Channel_info_end",
"Channel_info_start",
"Channel : Mn",
"Points : 0",
"Range : 0.000000 - 0.000000",
"Step : 0.010000",
"Channel_info_end",
"Channel_info_start",
"Channel : Fe",
"Points : 0",
"Range : 0.000000 - 0.000000",
"Step : 0.010000",
"Channel_info_end",
"Channel_info_start",
"Channel : Cu",
"Points : 0",
"Range : 0.000000 - 0.000000",
"Step : 0.010000",
"Channel_info_end",
"Channel_info_start",
"Channel : Zn",
"Points : 0",
"Range : 0.000000 - 0.000000",
"Step : 0.010000",
"Channel_info_end",
"Channel_info_start",
"Channel : Sr",
"Points : 0",
"Range : 0.000000 - 0.000000",
"Step : 0.010000",
"Channel_info_end",
"Channel_info_start",
"Channel : Pb",
"Points : 0",
"Range : 0.000000 - 0.000000",
"Step : 0.010000",
"Channel_info_end",
"",
"Qualitative Result",
"--------------------------------------------------------------------------------",
"Element :  Mg, Yb, Ta, P , Ca, Dy, Ni, Cu, Ru",
"",
"Peak List",
"--------------------------------------------------------------------------------",
"Channel               Line        keV     Net Int.(cps/uA)",
"--------------------------------------------------------------------------------",
"Na                    MgKa         1.20     0.038",
"                      YbMa         1.55     0.605",
"                      TaMa         1.76     0.056",
"                      P Ka         2.00     0.034",
"                      CaKa         3.69     0.281",
"                      CaKb         4.02     0.041",
"                      YbLL         6.55     0.151",
"                      DyLa         6.55     0.082",
"                      DyLb1        7.25     0.046",
"                      NiKa         7.40     5.040",
"                      TaLa         8.08     0.070",
"                      YbLb4        8.27     0.706",
"                      YbLb1        8.40     2.908",
"                      YbLb2        8.75     0.798",
"                      CuKb         8.91     0.011",
"                      TaLb1        9.34     0.060",
"                      YbLg1        9.76     0.462",
"                      YbLg2       10.09     0.152",
"                      RuKa        19.15     0.130",
"                      ----        19.38     0.074",
"                      ----        19.92     0.046",
"--------------------------------------------------------------------------------",
"",
"Quantitative Result",
"--------------------------------------------------------------------------------",
"Analyte               Result             Std.Dev. Proc.-Calc. Line Intensity(cps/uA)",
"--------------------------------------------------------------------------------",
"====[No. 1 Layer]====< Layer1               >===============================",
"Layer1                  12.502 ug/cm2    -------- Flux       -------- --------",
"Mg                      12.502 ug/cm2    -------- ********** -------- --------",