File: inputs/edxCalibration/edx_raw/2010/junho/YF3 31506.20100525233733.csv
"Sample    : YF3 31506",
"Operator  : luisf",
"Comment  : cubatao-g-policarbonato",
"Group     : kerr2007ag180cal_lt",
"Date       : 2010-05-25 23:31:39",
"",
"Mesurement Condition",
"------------------------------------------------------------------------------------",
"Instrument : 700HS2   Atmosphere : Vac.   Collimator : 10(mm)   Spin : No",
"------------------------------------------------------------------------------------",
"Analyte               TG kV   uA      FI Acq.(keV)  Anal.(keV)  Time(sec)     DT(%)",
"------------------------------------------------------------------------------------",
"Na                    Rh 50  237-Auto Al  0 - 20    0.8 - 1.2   Live -  178   14",
"",
"<Profile>",
"Channel_info_start",
"Channel : Na",
"Points : 2048",
"Range : 0.000000 - 20.48",
"Step : 0.010000",
"Channel_info_end",
"0",
"0",
"0",
"0",
"0",
"45",
"35",
"28",
"29",
"35",
"43",
"42",
"29",
"34",
"26",
"28",
"20",
"25",
"25",
"23",
"20",
"25",
"56",
"89",
"200",
"230",
"310",
"1362",
"1874",
"1025",
"291",
"83",
"39",
"27",
"34",
"25",
"23",
"23",
"20",
"15",
"23",
"14",
"18",
"13",
"13",
"10",
"16",
"17",
"14",
"25",
"25",
"97",
"584",
"861",
"263",
"51",
"74",
"131",
"107",
"51",
"33",
"24",
"42",
"38",
"42",
"42",
"54",
"62",
"56",
"41",
"31",
"43",
"35",
"39",
"34",
"39",
"56",
"59",
"37",
"43",
"40",
"55",
"51",
"63",
"58",
"56",
"76",
"66",
"70",
"85",
"81",
"95",
"77",
"85",
"91",
"81",
"100",
"112",
"86",
"109",
"94",
"84",
"80",
"89",
"90",
"90",
"73",
"84",
"113",
"76",
"106",
"99",
"110",
"115",
"107",
"158",
"135",
"112",
"81",
"97",
"89",
"100",
"116",
"139",
"114",
"129",
"103",
"102",
"121",
"90",
"83",
"74",
"90",
"96",
"89",
"101",
"90",
"99",
"94",
"91",
"89",
"92",
"90",
"99",
"92",
"91",
"74",
"99",
"88",
"105",
"92",
"96",
"96",
"119",
"80",
"87",
"96",
"86",
"84",
"87",
"82",
"78",
"77",
"83",
"85",
"85",
"76",
"94",
"90",
"70",
"71",
"62",
"75",
"99",
"66",
"78",
"74",
"73",
"94",
"68",
"76",
"82",
"83",
"87",
"75",
"72",
"63",
"82",
"75",
"71",
"64",
"76",
"84",
"74",
"83",
"78",
"67",
"66",
"73",
"96",
"78",
"92",
"73",
"97",
"77",
"91",
"89",
"117",
"168",
"503",
"1829",
"5681",
"10859",
"13721",
"11514",
"6766",
"2556",
"641",
"166",
"102",
"81",
"73",
"81",
"60",
"78",
"90",
"49",
"75",
"64",
"61",
"74",
"67",
"78",
"96",
"104",
"188",
"580",
"1187",
"1886",
"2288",
"1756",
"1060",
"607",
"446",
"302",
"173",
"105",
"49",
"42",
"48",
"35",
"47",
"39",
"45",
"42",
"53",
"48",
"54",
"43",
"63",
"67",
"53",
"55",
"70",
"74",
"81",
"71",
"115",
"95",
"177",
"174",
"254",
"312",
"354",
"290",
"333",
"302",
"242",
"186",
"164",
"116",
"78",
"86",
"102",
"98",
"119",
"142",
"154",
"127",
"111",
"49",
"47",
"61",
"24800",
"Channel_info_start",
"Channel : Mg",
"Points : 0",
"Range : 0.000000 - 0.000000",
"Step : 0.010000",
"Channel_info_end",
"Channel_info_start",
"Channel : Al",
"Points : 0",
"Range : 0.000000 - 0.000000",
"Step : 0.010000",
"Channel_info_end",
"Channel_info_start",
"Channel : Si",
"Points : 0",
"Range : 0.000000 - 0.000000",
"Step : 0.010000",
"Channel_info_end",
"Channel_info_start",
"Channel : P ",
"Points : 0",
"Range : 0.000000 - 0.000000",
"Step : 0.010000",
"Channel_info_end",
"Channel_info_start",
"Channel : S ",
"Points : 0",
"Range : 0.000000 - 0.000000",
"Step : 0.010000",
"Channel_info_end",
"Channel_info_start",
"Channel : Cl",
"Points : 0",
"Range : 0.000000 - 0.000000",
"Step : 0.010000",
"Channel_info_end",
"Channel_info_start",
"Channel : K ",
"Points : 0",
"Range : 0.000000 - 0.000000",
"Step : 0.010000",
"Channel_info_end",
"Channel_info_start",
"Channel : Ca",
"Points : 0",
"Range : 0.000000 - 0.000000",
"Step : 0.010000",
"Channel_info_end",
"Channel_info_start",
"Channel : Ti",
"Points : 0",
"Range : 0.000000 - 0.000000",
"Step : 0.010000",
"Channel_info_end",
"Channel_info_start",
"Channel : V ",
"Points : 0",
"Range : 0.000000 - 0.000000",
"Step : 0.010000",
"Channel_info_end",
"Channel_info_start",
"Channel : Cr",
"Points : 0",
"Range : 0.000000 - 0.000000",
"Step : 0.010000",
"Channel_info_end",
"Channel_info_start",
"Channel : Mn",
"Points : 0",
"Range : 0.000000 - 0.000000",
"Step : 0.010000",
"Channel_info_end",
"Channel_info_start",
"Channel : Fe",
"Points : 0",
"Range : 0.000000 - 0.000000",
"Step : 0.010000",
"Channel_info_end",
"Channel_info_start",
"Channel : Cu",
"Points : 0",
"Range : 0.000000 - 0.000000",
"Step : 0.010000",
"Channel_info_end",
"Channel_info_start",
"Channel : Zn",
"Points : 0",
"Range : 0.000000 - 0.000000",
"Step : 0.010000",
"Channel_info_end",
"Channel_info_start",
"Channel : Sr",
"Points : 0",
"Range : 0.000000 - 0.000000",
"Step : 0.010000",
"Channel_info_end",
"Channel_info_start",
"Channel : Pb",
"Points : 0",
"Range : 0.000000 - 0.000000",
"Step : 0.010000",
"Channel_info_end",
"",
"Qualitative Result",
"--------------------------------------------------------------------------------",
"Element :  Si, Y , Ca, Ru",
"",
"Peak List",
"--------------------------------------------------------------------------------",
"Channel               Line        keV     Net Int.(cps/uA)",
"--------------------------------------------------------------------------------",
"Na                    SiKa         1.71     0.048",
"                      Y La         1.94     0.523",
"                      CaKa         3.69     0.292",
"                      CaKb         4.03     0.034",
"                      Y Ka        14.92     6.752",
"                      Y Kb        16.72     1.106",
"                      ----        17.06     0.115",
"                      RuKa        19.23     0.129",
"                      ----        19.44     0.067",
"                      ----        19.97     0.041",
"--------------------------------------------------------------------------------",
"",
"Quantitative Result",
"--------------------------------------------------------------------------------",
"Analyte               Result             Std.Dev. Proc.-Calc. Line Intensity(cps/uA)",
"--------------------------------------------------------------------------------",
"====[No. 1 Layer]====< Layer1               >===============================",
"Layer1                   0.000 ug/cm2    -------- Flux       -------- --------",