File: inputs/edxCalibration/edx_raw/2010/junho/ZnTe 31501.20100525221400.csv
"Sample    : ZnTe 31501",
"Operator  : luisf",
"Comment  : cubatao-g-policarbonato",
"Group     : kerr2007ag180cal_lt",
"Date       : 2010-05-25 22:09:56",
"",
"Mesurement Condition",
"------------------------------------------------------------------------------------",
"Instrument : 700HS2   Atmosphere : Vac.   Collimator : 10(mm)   Spin : No",
"------------------------------------------------------------------------------------",
"Analyte               TG kV   uA      FI Acq.(keV)  Anal.(keV)  Time(sec)     DT(%)",
"------------------------------------------------------------------------------------",
"Na                    Rh 50  237-Auto Al  0 - 20    0.8 - 1.2   Live -  180   15",
"",
"<Profile>",
"Channel_info_start",
"Channel : Na",
"Points : 2048",
"Range : 0.000000 - 20.48",
"Step : 0.010000",
"Channel_info_end",
"0",
"0",
"0",
"0",
"0",
"24",
"25",
"23",
"21",
"26",
"31",
"25",
"35",
"47",
"167",
"235",
"73",
"34",
"29",
"26",
"31",
"27",
"36",
"25",
"39",
"33",
"34",
"50",
"99",
"159",
"63",
"27",
"46",
"82",
"39",
"32",
"38",
"25",
"29",
"38",
"32",
"26",
"43",
"39",
"51",
"64",
"94",
"243",
"312",
"172",
"113",
"290",
"1214",
"4617",
"6383",
"2391",
"768",
"3209",
"4070",
"2085",
"754",
"899",
"778",
"264",
"226",
"487",
"383",
"122",
"232",
"347",
"202",
"87",
"45",
"48",
"45",
"37",
"39",
"74",
"66",
"62",
"75",
"85",
"61",
"70",
"72",
"61",
"82",
"76",
"105",
"93",
"106",
"117",
"116",
"123",
"92",
"116",
"108",
"106",
"109",
"129",
"101",
"112",
"105",
"96",
"110",
"126",
"119",
"134",
"112",
"104",
"118",
"119",
"126",
"129",
"124",
"155",
"160",
"137",
"126",
"202",
"405",
"2540",
"9217",
"17218",
"13146",
"4693",
"819",
"210",
"133",
"134",
"142",
"142",
"152",
"168",
"346",
"997",
"2046",
"2140",
"1184",
"410",
"142",
"96",
"105",
"105",
"108",
"94",
"86",
"104",
"85",
"92",
"93",
"106",
"87",
"90",
"81",
"101",
"113",
"100",
"87",
"88",
"99",
"101",
"84",
"83",
"71",
"108",
"93",
"88",
"90",
"99",
"95",
"88",
"81",
"89",
"97",
"105",
"102",
"95",
"90",
"116",
"98",
"87",
"81",
"77",
"90",
"90",
"93",
"72",
"82",
"77",
"85",
"92",
"69",
"66",
"68",
"69",
"78",
"76",
"73",
"70",
"71",
"63",
"85",
"76",
"64",
"66",
"59",
"59",
"66",
"60",
"71",
"68",
"57",
"57",
"69",
"60",
"54",
"63",
"47",
"77",
"76",
"63",
"57",
"63",
"58",
"64",
"46",
"51",
"78",
"60",
"69",
"64",
"63",
"61",
"59",
"60",
"61",
"63",
"51",
"59",
"61",
"61",
"45",
"52",
"54",
"74",
"78",
"62",
"72",
"62",
"62",
"68",
"48",
"57",
"61",
"53",
"65",
"52",
"60",
"63",
"70",
"62",
"73",
"83",
"72",
"72",
"92",
"104",
"132",
"153",
"198",
"241",
"298",
"295",
"385",
"364",
"315",
"254",
"237",
"157",
"121",
"87",
"81",
"109",
"126",
"181",
"217",
"234",
"197",
"136",
"72",
"64",
"51",
"53268",
"Channel_info_start",
"Channel : Mg",
"Points : 0",
"Range : 0.000000 - 0.000000",
"Step : 0.010000",
"Channel_info_end",
"Channel_info_start",
"Channel : Al",
"Points : 0",
"Range : 0.000000 - 0.000000",
"Step : 0.010000",
"Channel_info_end",
"Channel_info_start",
"Channel : Si",
"Points : 0",
"Range : 0.000000 - 0.000000",
"Step : 0.010000",
"Channel_info_end",
"Channel_info_start",
"Channel : P ",
"Points : 0",
"Range : 0.000000 - 0.000000",
"Step : 0.010000",
"Channel_info_end",
"Channel_info_start",
"Channel : S ",
"Points : 0",
"Range : 0.000000 - 0.000000",
"Step : 0.010000",
"Channel_info_end",
"Channel_info_start",
"Channel : Cl",
"Points : 0",
"Range : 0.000000 - 0.000000",
"Step : 0.010000",
"Channel_info_end",
"Channel_info_start",
"Channel : K ",
"Points : 0",
"Range : 0.000000 - 0.000000",
"Step : 0.010000",
"Channel_info_end",
"Channel_info_start",
"Channel : Ca",
"Points : 0",
"Range : 0.000000 - 0.000000",
"Step : 0.010000",
"Channel_info_end",
"Channel_info_start",
"Channel : Ti",
"Points : 0",
"Range : 0.000000 - 0.000000",
"Step : 0.010000",
"Channel_info_end",
"Channel_info_start",
"Channel : V ",
"Points : 0",
"Range : 0.000000 - 0.000000",
"Step : 0.010000",
"Channel_info_end",
"Channel_info_start",
"Channel : Cr",
"Points : 0",
"Range : 0.000000 - 0.000000",
"Step : 0.010000",
"Channel_info_end",
"Channel_info_start",
"Channel : Mn",
"Points : 0",
"Range : 0.000000 - 0.000000",
"Step : 0.010000",
"Channel_info_end",
"Channel_info_start",
"Channel : Fe",
"Points : 0",
"Range : 0.000000 - 0.000000",
"Step : 0.010000",
"Channel_info_end",
"Channel_info_start",
"Channel : Cu",
"Points : 0",
"Range : 0.000000 - 0.000000",
"Step : 0.010000",
"Channel_info_end",
"Channel_info_start",
"Channel : Zn",
"Points : 0",
"Range : 0.000000 - 0.000000",
"Step : 0.010000",
"Channel_info_end",
"Channel_info_start",
"Channel : Sr",
"Points : 0",
"Range : 0.000000 - 0.000000",
"Step : 0.010000",
"Channel_info_end",
"Channel_info_start",
"Channel : Pb",
"Points : 0",
"Range : 0.000000 - 0.000000",
"Step : 0.010000",
"Channel_info_end",
"",
"Qualitative Result",
"--------------------------------------------------------------------------------",
"Element :  Zn, P , Te, K , Ca, Ru",
"",
"Peak List",
"--------------------------------------------------------------------------------",
"Channel               Line        keV     Net Int.(cps/uA)",
"--------------------------------------------------------------------------------",
"Na                    ZnLa         1.03     0.064",
"                      P Ka         2.00     0.038",
"                      TeLL         3.33     0.061",
"                      K Ka         3.33     0.013",
"                      CaKa         3.76     2.205",
"                      CaKb         4.04     0.309",
"                      TeLb1        4.04     1.045",
"                      TeLb2        4.30     0.234",
"                      TeLg1        4.56     0.117",
"                      TeLg2        4.82     0.081",
"                      ZnKa         8.63     6.930",
"                      ZnKb         9.56     0.967",
"                      RuKa        19.17     0.134",
"                      ----        19.45     0.069",
"                      ----        19.94     0.045",
"--------------------------------------------------------------------------------",
"",
"Quantitative Result",
"--------------------------------------------------------------------------------",
"Analyte               Result             Std.Dev. Proc.-Calc. Line Intensity(cps/uA)",
"--------------------------------------------------------------------------------",
"====[No. 1 Layer]====< Layer1               >===============================",
"Layer1                   0.000 ug/cm2    -------- Flux       -------- --------",