File: inputs/edxCalibration/edx_raw/2010-06/15766 CdSe.20100626141246.csv
"Sample    : 15766 CdSe",
"Operator  : thiago",
"Comment  : cubatao-g-policarbonato",
"Group     : kerr2007ag180cal_lt",
"Date       : 2010-06-26 14:08:44",
"",
"Mesurement Condition",
"------------------------------------------------------------------------------------",
"Instrument : 700HS2   Atmosphere : Vac.   Collimator : 10(mm)   Spin : No",
"------------------------------------------------------------------------------------",
"Analyte               TG kV   uA      FI Acq.(keV)  Anal.(keV)  Time(sec)     DT(%)",
"------------------------------------------------------------------------------------",
"Na                    Rh 50  237-Auto Al  0 - 20    0.8 - 1.2   Live -  179   14",
"",
"<Profile>",
"Channel_info_start",
"Channel : Na",
"Points : 2048",
"Range : 0.000000 - 20.48",
"Step : 0.010000",
"Channel_info_end",
"0",
"0",
"0",
"0",
"0",
"31",
"23",
"43",
"25",
"33",
"16",
"19",
"16",
"27",
"32",
"41",
"25",
"53",
"70",
"306",
"765",
"404",
"87",
"60",
"56",
"46",
"36",
"38",
"58",
"87",
"41",
"35",
"44",
"40",
"32",
"31",
"31",
"43",
"76",
"181",
"219",
"137",
"148",
"328",
"2116",
"3955",
"1425",
"1774",
"1844",
"872",
"481",
"482",
"507",
"734",
"294",
"96",
"137",
"174",
"69",
"44",
"32",
"40",
"37",
"32",
"33",
"55",
"44",
"46",
"42",
"43",
"41",
"41",
"36",
"52",
"38",
"45",
"45",
"79",
"54",
"71",
"54",
"65",
"68",
"69",
"84",
"76",
"87",
"93",
"91",
"84",
"105",
"94",
"86",
"98",
"87",
"107",
"76",
"101",
"94",
"107",
"97",
"73",
"91",
"96",
"82",
"106",
"109",
"101",
"101",
"106",
"98",
"107",
"103",
"115",
"117",
"149",
"128",
"81",
"103",
"91",
"90",
"121",
"130",
"179",
"150",
"122",
"121",
"97",
"73",
"99",
"76",
"117",
"100",
"94",
"109",
"138",
"126",
"121",
"91",
"108",
"81",
"119",
"105",
"110",
"96",
"86",
"77",
"124",
"108",
"107",
"99",
"109",
"94",
"106",
"128",
"137",
"175",
"807",
"3432",
"9315",
"13402",
"10676",
"4575",
"1118",
"221",
"114",
"93",
"114",
"107",
"121",
"103",
"111",
"121",
"121",
"131",
"182",
"465",
"1156",
"1884",
"1944",
"1223",
"477",
"217",
"111",
"76",
"95",
"71",
"81",
"72",
"80",
"72",
"71",
"71",
"71",
"77",
"72",
"58",
"65",
"63",
"68",
"69",
"67",
"68",
"79",
"74",
"60",
"67",
"49",
"60",
"67",
"70",
"83",
"76",
"77",
"68",
"59",
"56",
"85",
"68",
"58",
"65",
"60",
"37",
"66",
"68",
"54",
"55",
"42",
"56",
"64",
"54",
"53",
"60",
"54",
"54",
"43",
"59",
"64",
"53",
"62",
"57",
"56",
"52",
"46",
"58",
"62",
"55",
"66",
"58",
"74",
"54",
"62",
"52",
"56",
"58",
"63",
"63",
"42",
"52",
"53",
"63",
"69",
"58",
"66",
"77",
"65",
"92",
"110",
"111",
"150",
"201",
"245",
"271",
"336",
"354",
"359",
"318",
"273",
"212",
"172",
"135",
"97",
"90",
"85",
"112",
"145",
"191",
"219",
"210",
"131",
"77",
"55",
"64",
"83529",
"Channel_info_start",
"Channel : Mg",
"Points : 0",
"Range : 0.000000 - 0.000000",
"Step : 0.010000",
"Channel_info_end",
"Channel_info_start",
"Channel : Al",
"Points : 0",
"Range : 0.000000 - 0.000000",
"Step : 0.010000",
"Channel_info_end",
"Channel_info_start",
"Channel : Si",
"Points : 0",
"Range : 0.000000 - 0.000000",
"Step : 0.010000",
"Channel_info_end",
"Channel_info_start",
"Channel : P ",
"Points : 0",
"Range : 0.000000 - 0.000000",
"Step : 0.010000",
"Channel_info_end",
"Channel_info_start",
"Channel : S ",
"Points : 0",
"Range : 0.000000 - 0.000000",
"Step : 0.010000",
"Channel_info_end",
"Channel_info_start",
"Channel : Cl",
"Points : 0",
"Range : 0.000000 - 0.000000",
"Step : 0.010000",
"Channel_info_end",
"Channel_info_start",
"Channel : K ",
"Points : 0",
"Range : 0.000000 - 0.000000",
"Step : 0.010000",
"Channel_info_end",
"Channel_info_start",
"Channel : Ca",
"Points : 0",
"Range : 0.000000 - 0.000000",
"Step : 0.010000",
"Channel_info_end",
"Channel_info_start",
"Channel : Ti",
"Points : 0",
"Range : 0.000000 - 0.000000",
"Step : 0.010000",
"Channel_info_end",
"Channel_info_start",
"Channel : V ",
"Points : 0",
"Range : 0.000000 - 0.000000",
"Step : 0.010000",
"Channel_info_end",
"Channel_info_start",
"Channel : Cr",
"Points : 0",
"Range : 0.000000 - 0.000000",
"Step : 0.010000",
"Channel_info_end",
"Channel_info_start",
"Channel : Mn",
"Points : 0",
"Range : 0.000000 - 0.000000",
"Step : 0.010000",
"Channel_info_end",
"Channel_info_start",
"Channel : Fe",
"Points : 0",
"Range : 0.000000 - 0.000000",
"Step : 0.010000",
"Channel_info_end",
"Channel_info_start",
"Channel : Cu",
"Points : 0",
"Range : 0.000000 - 0.000000",
"Step : 0.010000",
"Channel_info_end",
"Channel_info_start",
"Channel : Zn",
"Points : 0",
"Range : 0.000000 - 0.000000",
"Step : 0.010000",
"Channel_info_end",
"Channel_info_start",
"Channel : Sr",
"Points : 0",
"Range : 0.000000 - 0.000000",
"Step : 0.010000",
"Channel_info_end",
"Channel_info_start",
"Channel : Pb",
"Points : 0",
"Range : 0.000000 - 0.000000",
"Step : 0.010000",
"Channel_info_end",
"",
"Qualitative Result",
"--------------------------------------------------------------------------------",
"Element :  Se, P , Cd, Ca, Zn, Rh",
"",
"Peak List",
"--------------------------------------------------------------------------------",
"Channel               Line        keV     Net Int.(cps/uA)",
"--------------------------------------------------------------------------------",
"Na                    SeLa         1.40     0.203",
"                      P Ka         2.02     0.011",
"                      CdLL         2.76     0.041",
"                      CdLa         3.14     1.177",
"                      CdLb1        3.32     0.610",
"                      CdLb2        3.55     0.108",
"                      CdLg1        3.71     0.059",
"                      CaKa         3.71     0.131",
"                      CdLg2        3.97     0.038",
"                      ZnKa         8.61     0.030",
"                      SeKa        11.20     5.985",
"                      SeKb        12.48     0.903",
"                      RhKaC       19.28     0.138",
"                      RhKa        20.14     0.074",
"--------------------------------------------------------------------------------",
"",
"Quantitative Result",
"--------------------------------------------------------------------------------",
"Analyte               Result             Std.Dev. Proc.-Calc. Line Intensity(cps/uA)",
"--------------------------------------------------------------------------------",
"====[No. 1 Layer]====< Layer1               >===============================",
"Layer1                   0.000 ug/cm2    -------- Flux       -------- --------",