File: inputs/edxCalibration/edx_raw/2010-06/Au 15771.20100526013004.csv
"Sample    : Au 15771",
"Operator  : luisf",
"Comment  : cubatao-g-policarbonato",
"Group     : kerr2007ag180cal_lt",
"Date       : 2010-05-26 01:25:59",
"",
"Mesurement Condition",
"------------------------------------------------------------------------------------",
"Instrument : 700HS2   Atmosphere : Vac.   Collimator : 10(mm)   Spin : No",
"------------------------------------------------------------------------------------",
"Analyte               TG kV   uA      FI Acq.(keV)  Anal.(keV)  Time(sec)     DT(%)",
"------------------------------------------------------------------------------------",
"Na                    Rh 50  187-Auto Al  0 - 20    0.8 - 1.2   Live -  179   16",
"",
"<Profile>",
"Channel_info_start",
"Channel : Na",
"Points : 2048",
"Range : 0.000000 - 20.48",
"Step : 0.010000",
"Channel_info_end",
"0",
"0",
"0",
"0",
"0",
"72",
"101",
"83",
"38",
"26",
"24",
"26",
"27",
"25",
"35",
"33",
"35",
"29",
"22",
"33",
"28",
"36",
"59",
"180",
"316",
"169",
"130",
"238",
"326",
"736",
"2927",
"4410",
"2592",
"528",
"335",
"341",
"88",
"39",
"53",
"103",
"184",
"99",
"36",
"20",
"16",
"37",
"24",
"20",
"23",
"28",
"28",
"86",
"246",
"386",
"133",
"56",
"53",
"68",
"62",
"19",
"12",
"23",
"31",
"28",
"28",
"47",
"40",
"35",
"43",
"29",
"36",
"38",
"23",
"46",
"38",
"48",
"70",
"84",
"75",
"61",
"56",
"57",
"47",
"60",
"40",
"53",
"71",
"96",
"100",
"138",
"171",
"176",
"170",
"166",
"140",
"151",
"120",
"124",
"72",
"88",
"67",
"87",
"65",
"79",
"75",
"93",
"76",
"117",
"81",
"88",
"69",
"77",
"97",
"108",
"111",
"126",
"131",
"135",
"130",
"255",
"509",
"814",
"706",
"441",
"219",
"142",
"107",
"112",
"105",
"115",
"121",
"129",
"131",
"156",
"177",
"394",
"1538",
"5549",
"10843",
"12133",
"6535",
"1888",
"349",
"158",
"155",
"140",
"186",
"301",
"200",
"134",
"115",
"120",
"122",
"104",
"92",
"92",
"151",
"196",
"332",
"712",
"911",
"1608",
"3513",
"6358",
"6655",
"5221",
"3221",
"1741",
"682",
"375",
"323",
"318",
"189",
"131",
"94",
"96",
"91",
"77",
"73",
"80",
"89",
"93",
"79",
"89",
"105",
"134",
"97",
"115",
"162",
"453",
"896",
"1196",
"942",
"517",
"314",
"354",
"398",
"342",
"230",
"146",
"84",
"85",
"92",
"99",
"119",
"85",
"80",
"57",
"79",
"64",
"71",
"59",
"53",
"68",
"48",
"48",
"64",
"48",
"57",
"56",
"60",
"62",
"56",
"52",
"60",
"59",
"51",
"59",
"56",
"55",
"70",
"64",
"56",
"43",
"41",
"53",
"62",
"51",
"58",
"51",
"50",
"68",
"43",
"62",
"48",
"59",
"52",
"46",
"49",
"53",
"48",
"55",
"52",
"46",
"53",
"47",
"52",
"45",
"56",
"39",
"52",
"48",
"61",
"63",
"59",
"69",
"62",
"88",
"84",
"109",
"150",
"201",
"249",
"290",
"300",
"267",
"235",
"193",
"168",
"126",
"119",
"85",
"77",
"79",
"112",
"176",
"228",
"260",
"259",
"166",
"88",
"53",
"41",
"23619",
"Channel_info_start",
"Channel : Mg",
"Points : 0",
"Range : 0.000000 - 0.000000",
"Step : 0.010000",
"Channel_info_end",
"Channel_info_start",
"Channel : Al",
"Points : 0",
"Range : 0.000000 - 0.000000",
"Step : 0.010000",
"Channel_info_end",
"Channel_info_start",
"Channel : Si",
"Points : 0",
"Range : 0.000000 - 0.000000",
"Step : 0.010000",
"Channel_info_end",
"Channel_info_start",
"Channel : P ",
"Points : 0",
"Range : 0.000000 - 0.000000",
"Step : 0.010000",
"Channel_info_end",
"Channel_info_start",
"Channel : S ",
"Points : 0",
"Range : 0.000000 - 0.000000",
"Step : 0.010000",
"Channel_info_end",
"Channel_info_start",
"Channel : Cl",
"Points : 0",
"Range : 0.000000 - 0.000000",
"Step : 0.010000",
"Channel_info_end",
"Channel_info_start",
"Channel : K ",
"Points : 0",
"Range : 0.000000 - 0.000000",
"Step : 0.010000",
"Channel_info_end",
"Channel_info_start",
"Channel : Ca",
"Points : 0",
"Range : 0.000000 - 0.000000",
"Step : 0.010000",
"Channel_info_end",
"Channel_info_start",
"Channel : Ti",
"Points : 0",
"Range : 0.000000 - 0.000000",
"Step : 0.010000",
"Channel_info_end",
"Channel_info_start",
"Channel : V ",
"Points : 0",
"Range : 0.000000 - 0.000000",
"Step : 0.010000",
"Channel_info_end",
"Channel_info_start",
"Channel : Cr",
"Points : 0",
"Range : 0.000000 - 0.000000",
"Step : 0.010000",
"Channel_info_end",
"Channel_info_start",
"Channel : Mn",
"Points : 0",
"Range : 0.000000 - 0.000000",
"Step : 0.010000",
"Channel_info_end",
"Channel_info_start",
"Channel : Fe",
"Points : 0",
"Range : 0.000000 - 0.000000",
"Step : 0.010000",
"Channel_info_end",
"Channel_info_start",
"Channel : Cu",
"Points : 0",
"Range : 0.000000 - 0.000000",
"Step : 0.010000",
"Channel_info_end",
"Channel_info_start",
"Channel : Zn",
"Points : 0",
"Range : 0.000000 - 0.000000",
"Step : 0.010000",
"Channel_info_end",
"Channel_info_start",
"Channel : Sr",
"Points : 0",
"Range : 0.000000 - 0.000000",
"Step : 0.010000",
"Channel_info_end",
"Channel_info_start",
"Channel : Pb",
"Points : 0",
"Range : 0.000000 - 0.000000",
"Step : 0.010000",
"Channel_info_end",
"",
"Qualitative Result",
"--------------------------------------------------------------------------------",
"Element :  Sc, Rb, Au, Ca, Ru",
"",
"Peak List",
"--------------------------------------------------------------------------------",
"Channel               Line        keV     Net Int.(cps/uA)",
"--------------------------------------------------------------------------------",
"Na                    ScLa         0.40     0.016",
"                      RbLa         1.66     0.092",
"                      AuMa         2.16     1.557",
"                      ----         2.43     0.126",
"                      ----         2.79     0.055",
"                      CaKa         3.69     0.161",
"                      CaKb         4.02     0.027",
"                      ----         5.48     0.020",
"                      ----         6.21     0.040",
"                      ----         6.49     0.057",
"                      ----         6.64     0.039",
"                      AuLL         8.51     0.381",
"                      AuLa         9.70     6.695",
"                      ----        10.29     0.090",
"                      AuLb4       11.13     0.243",
"                      AuLb1       11.44     3.667",
"                      AuLg1       13.36     0.632",
"                      AuLg2       13.72     0.174",
"                      RuKa        19.21     0.136",
"                      AuLaSUM     19.45     0.066",
"                      ----        20.00     0.120",
"--------------------------------------------------------------------------------",
"",
"Quantitative Result",
"--------------------------------------------------------------------------------",
"Analyte               Result             Std.Dev. Proc.-Calc. Line Intensity(cps/uA)",
"--------------------------------------------------------------------------------",
"====[No. 1 Layer]====< Layer1               >===============================",
"Layer1                   0.000 ug/cm2    -------- Flux       -------- --------",