File: inputs/edxCalibration/edx_raw/2010-06/Au 15771.20100611041943.csv
"Sample    : Au 15771",
"Operator  : Luís",
"Comment  : cubatao-g-policarbonato",
"Group     : kerr2007ag180cal_lt",
"Date       : 2010-06-11 04:15:41",
"",
"Mesurement Condition",
"------------------------------------------------------------------------------------",
"Instrument : 700HS2   Atmosphere : Vac.   Collimator : 10(mm)   Spin : No",
"------------------------------------------------------------------------------------",
"Analyte               TG kV   uA      FI Acq.(keV)  Anal.(keV)  Time(sec)     DT(%)",
"------------------------------------------------------------------------------------",
"Na                    Rh 50  168-Auto Al  0 - 20    0.8 - 1.2   Live -  179   14",
"",
"<Profile>",
"Channel_info_start",
"Channel : Na",
"Points : 2048",
"Range : 0.000000 - 20.48",
"Step : 0.010000",
"Channel_info_end",
"0",
"0",
"0",
"0",
"0",
"90",
"112",
"74",
"29",
"34",
"28",
"24",
"31",
"26",
"28",
"27",
"30",
"14",
"21",
"28",
"24",
"40",
"40",
"191",
"277",
"160",
"129",
"170",
"293",
"646",
"2640",
"3858",
"2222",
"507",
"317",
"335",
"90",
"31",
"58",
"112",
"140",
"100",
"42",
"15",
"23",
"19",
"24",
"29",
"27",
"22",
"34",
"72",
"250",
"369",
"116",
"35",
"40",
"64",
"45",
"22",
"17",
"21",
"16",
"36",
"40",
"32",
"44",
"31",
"27",
"27",
"15",
"31",
"36",
"39",
"34",
"57",
"61",
"71",
"59",
"78",
"49",
"50",
"41",
"44",
"53",
"53",
"55",
"77",
"112",
"131",
"137",
"172",
"184",
"135",
"117",
"117",
"90",
"109",
"78",
"74",
"67",
"79",
"64",
"55",
"61",
"65",
"67",
"70",
"81",
"70",
"68",
"79",
"83",
"100",
"116",
"132",
"122",
"98",
"124",
"213",
"471",
"751",
"637",
"383",
"198",
"123",
"117",
"105",
"95",
"91",
"120",
"110",
"107",
"130",
"181",
"408",
"1527",
"5022",
"10113",
"10655",
"5506",
"1559",
"303",
"132",
"130",
"127",
"199",
"255",
"187",
"123",
"93",
"103",
"84",
"92",
"84",
"125",
"114",
"154",
"313",
"574",
"820",
"1514",
"3326",
"5679",
"5800",
"4465",
"2831",
"1471",
"532",
"332",
"291",
"267",
"178",
"114",
"96",
"75",
"79",
"72",
"75",
"75",
"66",
"51",
"77",
"76",
"96",
"120",
"107",
"117",
"171",
"484",
"792",
"1075",
"778",
"407",
"275",
"333",
"368",
"316",
"193",
"120",
"79",
"77",
"70",
"77",
"96",
"87",
"69",
"65",
"57",
"55",
"62",
"47",
"56",
"62",
"50",
"54",
"49",
"51",
"45",
"47",
"42",
"42",
"27",
"40",
"57",
"53",
"54",
"41",
"57",
"65",
"53",
"48",
"45",
"48",
"43",
"41",
"40",
"47",
"44",
"52",
"44",
"39",
"43",
"55",
"41",
"35",
"47",
"43",
"39",
"35",
"41",
"40",
"58",
"44",
"43",
"54",
"42",
"36",
"50",
"44",
"43",
"45",
"41",
"44",
"50",
"63",
"54",
"63",
"109",
"125",
"143",
"180",
"208",
"262",
"237",
"273",
"244",
"216",
"137",
"130",
"83",
"91",
"79",
"70",
"122",
"172",
"216",
"237",
"223",
"129",
"65",
"54",
"39",
"20733",
"Channel_info_start",
"Channel : Mg",
"Points : 0",
"Range : 0.000000 - 0.000000",
"Step : 0.010000",
"Channel_info_end",
"Channel_info_start",
"Channel : Al",
"Points : 0",
"Range : 0.000000 - 0.000000",
"Step : 0.010000",
"Channel_info_end",
"Channel_info_start",
"Channel : Si",
"Points : 0",
"Range : 0.000000 - 0.000000",
"Step : 0.010000",
"Channel_info_end",
"Channel_info_start",
"Channel : P ",
"Points : 0",
"Range : 0.000000 - 0.000000",
"Step : 0.010000",
"Channel_info_end",
"Channel_info_start",
"Channel : S ",
"Points : 0",
"Range : 0.000000 - 0.000000",
"Step : 0.010000",
"Channel_info_end",
"Channel_info_start",
"Channel : Cl",
"Points : 0",
"Range : 0.000000 - 0.000000",
"Step : 0.010000",
"Channel_info_end",
"Channel_info_start",
"Channel : K ",
"Points : 0",
"Range : 0.000000 - 0.000000",
"Step : 0.010000",
"Channel_info_end",
"Channel_info_start",
"Channel : Ca",
"Points : 0",
"Range : 0.000000 - 0.000000",
"Step : 0.010000",
"Channel_info_end",
"Channel_info_start",
"Channel : Ti",
"Points : 0",
"Range : 0.000000 - 0.000000",
"Step : 0.010000",
"Channel_info_end",
"Channel_info_start",
"Channel : V ",
"Points : 0",
"Range : 0.000000 - 0.000000",
"Step : 0.010000",
"Channel_info_end",
"Channel_info_start",
"Channel : Cr",
"Points : 0",
"Range : 0.000000 - 0.000000",
"Step : 0.010000",
"Channel_info_end",
"Channel_info_start",
"Channel : Mn",
"Points : 0",
"Range : 0.000000 - 0.000000",
"Step : 0.010000",
"Channel_info_end",
"Channel_info_start",
"Channel : Fe",
"Points : 0",
"Range : 0.000000 - 0.000000",
"Step : 0.010000",
"Channel_info_end",
"Channel_info_start",
"Channel : Cu",
"Points : 0",
"Range : 0.000000 - 0.000000",
"Step : 0.010000",
"Channel_info_end",
"Channel_info_start",
"Channel : Zn",
"Points : 0",
"Range : 0.000000 - 0.000000",
"Step : 0.010000",
"Channel_info_end",
"Channel_info_start",
"Channel : Sr",
"Points : 0",
"Range : 0.000000 - 0.000000",
"Step : 0.010000",
"Channel_info_end",
"Channel_info_start",
"Channel : Pb",
"Points : 0",
"Range : 0.000000 - 0.000000",
"Step : 0.010000",
"Channel_info_end",
"",
"Qualitative Result",
"--------------------------------------------------------------------------------",
"Element :  Rb, Au, Ca, W , Ru",
"",
"Peak List",
"--------------------------------------------------------------------------------",
"Channel               Line        keV     Net Int.(cps/uA)",
"--------------------------------------------------------------------------------",
"Na                    RbLa         1.67     0.094",
"                      ----         1.93     0.065",
"                      AuMa         2.15     1.493",
"                      ----         2.43     0.103",
"                      ----         2.78     0.059",
"                      CaKa         3.68     0.159",
"                      CaKb         4.03     0.024",
"                      ----         6.18     0.031",
"                      ----         6.44     0.062",
"                      AuLL         8.49     0.201",
"                      W La         8.49     0.175",
"                      W Lb1        9.67     0.140",
"                      AuLa         9.69     6.703",
"                      ----        10.28     0.083",
"                      AuLb4       11.13     0.215",
"                      AuLb1       11.44     3.649",
"                      AuLg1       13.36     0.661",
"                      AuLg2       13.73     0.197",
"                      RuKa        19.20     0.145",
"                      ----        20.00     0.130",
"--------------------------------------------------------------------------------",
"",
"Quantitative Result",
"--------------------------------------------------------------------------------",
"Analyte               Result             Std.Dev. Proc.-Calc. Line Intensity(cps/uA)",
"--------------------------------------------------------------------------------",
"====[No. 1 Layer]====< Layer1               >===============================",
"Layer1                   0.000 ug/cm2    -------- Flux       -------- --------",