File: inputs/edxCalibration/edx_raw/2010-06/BaF2 31515.20100526004721.csv
"Sample    : BaF2 31515",
"Operator  : luisf",
"Comment  : cubatao-g-policarbonato",
"Group     : kerr2007ag180cal_lt",
"Date       : 2010-05-26 00:43:09",
"",
"Mesurement Condition",
"------------------------------------------------------------------------------------",
"Instrument : 700HS2   Atmosphere : Vac.   Collimator : 10(mm)   Spin : No",
"------------------------------------------------------------------------------------",
"Analyte               TG kV   uA      FI Acq.(keV)  Anal.(keV)  Time(sec)     DT(%)",
"------------------------------------------------------------------------------------",
"Na                    Rh 50  393-Auto Al  0 - 20    0.8 - 1.2   Live -  179   15",
"",
"<Profile>",
"Channel_info_start",
"Channel : Na",
"Points : 2048",
"Range : 0.000000 - 20.48",
"Step : 0.010000",
"Channel_info_end",
"0",
"0",
"0",
"0",
"1",
"28",
"31",
"32",
"34",
"37",
"38",
"49",
"61",
"52",
"43",
"82",
"31",
"37",
"26",
"35",
"44",
"45",
"25",
"37",
"46",
"59",
"48",
"50",
"97",
"115",
"58",
"35",
"41",
"35",
"27",
"32",
"40",
"50",
"102",
"164",
"69",
"46",
"44",
"69",
"105",
"82",
"64",
"49",
"67",
"73",
"75",
"232",
"1033",
"1459",
"532",
"253",
"625",
"818",
"405",
"200",
"205",
"351",
"1817",
"9929",
"14887",
"5806",
"713",
"797",
"4595",
"9808",
"6487",
"2494",
"990",
"1989",
"2240",
"988",
"250",
"258",
"755",
"1400",
"784",
"344",
"590",
"768",
"424",
"273",
"222",
"155",
"140",
"111",
"164",
"179",
"167",
"170",
"144",
"159",
"158",
"132",
"117",
"141",
"155",
"152",
"123",
"143",
"175",
"167",
"169",
"164",
"152",
"179",
"159",
"206",
"176",
"205",
"203",
"215",
"211",
"198",
"155",
"157",
"159",
"150",
"175",
"237",
"203",
"202",
"175",
"185",
"189",
"174",
"168",
"186",
"201",
"209",
"207",
"171",
"178",
"185",
"171",
"149",
"153",
"151",
"147",
"180",
"137",
"169",
"143",
"174",
"163",
"149",
"146",
"166",
"162",
"168",
"132",
"166",
"151",
"169",
"141",
"158",
"143",
"151",
"151",
"173",
"153",
"158",
"149",
"163",
"139",
"133",
"111",
"116",
"128",
"124",
"141",
"144",
"127",
"139",
"138",
"131",
"127",
"143",
"138",
"127",
"128",
"138",
"122",
"106",
"126",
"145",
"97",
"115",
"131",
"114",
"108",
"142",
"132",
"117",
"112",
"117",
"129",
"126",
"141",
"162",
"112",
"129",
"109",
"111",
"123",
"97",
"112",
"108",
"110",
"96",
"96",
"112",
"124",
"87",
"119",
"116",
"109",
"96",
"90",
"117",
"106",
"107",
"92",
"99",
"90",
"117",
"91",
"106",
"94",
"90",
"104",
"73",
"93",
"80",
"63",
"83",
"84",
"109",
"107",
"84",
"117",
"91",
"96",
"105",
"83",
"100",
"100",
"84",
"92",
"87",
"97",
"90",
"95",
"106",
"96",
"88",
"99",
"94",
"108",
"121",
"130",
"131",
"140",
"186",
"217",
"260",
"277",
"446",
"462",
"538",
"531",
"563",
"497",
"436",
"302",
"258",
"202",
"153",
"135",
"143",
"200",
"280",
"307",
"351",
"313",
"218",
"111",
"90",
"95",
"54917",
"Channel_info_start",
"Channel : Mg",
"Points : 0",
"Range : 0.000000 - 0.000000",
"Step : 0.010000",
"Channel_info_end",
"Channel_info_start",
"Channel : Al",
"Points : 0",
"Range : 0.000000 - 0.000000",
"Step : 0.010000",
"Channel_info_end",
"Channel_info_start",
"Channel : Si",
"Points : 0",
"Range : 0.000000 - 0.000000",
"Step : 0.010000",
"Channel_info_end",
"Channel_info_start",
"Channel : P ",
"Points : 0",
"Range : 0.000000 - 0.000000",
"Step : 0.010000",
"Channel_info_end",
"Channel_info_start",
"Channel : S ",
"Points : 0",
"Range : 0.000000 - 0.000000",
"Step : 0.010000",
"Channel_info_end",
"Channel_info_start",
"Channel : Cl",
"Points : 0",
"Range : 0.000000 - 0.000000",
"Step : 0.010000",
"Channel_info_end",
"Channel_info_start",
"Channel : K ",
"Points : 0",
"Range : 0.000000 - 0.000000",
"Step : 0.010000",
"Channel_info_end",
"Channel_info_start",
"Channel : Ca",
"Points : 0",
"Range : 0.000000 - 0.000000",
"Step : 0.010000",
"Channel_info_end",
"Channel_info_start",
"Channel : Ti",
"Points : 0",
"Range : 0.000000 - 0.000000",
"Step : 0.010000",
"Channel_info_end",
"Channel_info_start",
"Channel : V ",
"Points : 0",
"Range : 0.000000 - 0.000000",
"Step : 0.010000",
"Channel_info_end",
"Channel_info_start",
"Channel : Cr",
"Points : 0",
"Range : 0.000000 - 0.000000",
"Step : 0.010000",
"Channel_info_end",
"Channel_info_start",
"Channel : Mn",
"Points : 0",
"Range : 0.000000 - 0.000000",
"Step : 0.010000",
"Channel_info_end",
"Channel_info_start",
"Channel : Fe",
"Points : 0",
"Range : 0.000000 - 0.000000",
"Step : 0.010000",
"Channel_info_end",
"Channel_info_start",
"Channel : Cu",
"Points : 0",
"Range : 0.000000 - 0.000000",
"Step : 0.010000",
"Channel_info_end",
"Channel_info_start",
"Channel : Zn",
"Points : 0",
"Range : 0.000000 - 0.000000",
"Step : 0.010000",
"Channel_info_end",
"Channel_info_start",
"Channel : Sr",
"Points : 0",
"Range : 0.000000 - 0.000000",
"Step : 0.010000",
"Channel_info_end",
"Channel_info_start",
"Channel : Pb",
"Points : 0",
"Range : 0.000000 - 0.000000",
"Step : 0.010000",
"Channel_info_end",
"",
"Qualitative Result",
"--------------------------------------------------------------------------------",
"Element :  P , Ba, Ca, Te, Pr",
"",
"Peak List",
"--------------------------------------------------------------------------------",
"Channel               Line        keV     Net Int.(cps/uA)",
"--------------------------------------------------------------------------------",
"Na                    P Ka         1.98     0.021",
"                      BaLaESC      2.70     0.024",
"                      BaLb1ESC     3.08     0.012",
"                      CaKa         3.68     0.282",
"                      BaLL         3.96     0.092",
"                      TeLb1        3.96     0.043",
"                      BaLa         4.47     3.059",
"                      BaLb1        4.84     1.969",
"                      BaLb2        5.16     0.464",
"                      BaLg1        5.54     0.184",
"                      PrLb1        5.54     0.057",
"                      BaLg2        5.81     0.123",
"                      ----        19.13     0.122",
"                      ----        19.51     0.035",
"--------------------------------------------------------------------------------",
"",
"Quantitative Result",
"--------------------------------------------------------------------------------",
"Analyte               Result             Std.Dev. Proc.-Calc. Line Intensity(cps/uA)",
"--------------------------------------------------------------------------------",
"====[No. 1 Layer]====< Layer1               >===============================",
"Layer1                   0.000 ug/cm2    -------- Flux       -------- --------",