File: inputs/edxCalibration/edx_raw/2010-06/BaF2 31515.20100611034049.csv
"Sample    : BaF2 31515",
"Operator  : Luís",
"Comment  : cubatao-g-policarbonato",
"Group     : kerr2007ag180cal_lt",
"Date       : 2010-06-11 03:36:36",
"",
"Mesurement Condition",
"------------------------------------------------------------------------------------",
"Instrument : 700HS2   Atmosphere : Vac.   Collimator : 10(mm)   Spin : No",
"------------------------------------------------------------------------------------",
"Analyte               TG kV   uA      FI Acq.(keV)  Anal.(keV)  Time(sec)     DT(%)",
"------------------------------------------------------------------------------------",
"Na                    Rh 50  393-Auto Al  0 - 20    0.8 - 1.2   Live -  180   15",
"",
"<Profile>",
"Channel_info_start",
"Channel : Na",
"Points : 2048",
"Range : 0.000000 - 20.48",
"Step : 0.010000",
"Channel_info_end",
"0",
"0",
"0",
"0",
"0",
"26",
"36",
"25",
"23",
"33",
"36",
"63",
"69",
"34",
"54",
"60",
"34",
"24",
"36",
"35",
"30",
"37",
"35",
"36",
"57",
"55",
"46",
"49",
"95",
"121",
"48",
"32",
"40",
"37",
"32",
"31",
"26",
"48",
"111",
"189",
"74",
"42",
"54",
"79",
"99",
"94",
"38",
"51",
"54",
"84",
"73",
"235",
"1078",
"1467",
"497",
"263",
"712",
"811",
"382",
"210",
"201",
"406",
"1963",
"10479",
"15213",
"5529",
"675",
"863",
"4784",
"9847",
"6442",
"2525",
"1061",
"2025",
"2334",
"911",
"247",
"292",
"776",
"1313",
"754",
"309",
"616",
"776",
"445",
"247",
"181",
"164",
"139",
"146",
"175",
"161",
"172",
"162",
"166",
"141",
"137",
"138",
"127",
"129",
"146",
"144",
"134",
"151",
"170",
"182",
"158",
"176",
"194",
"188",
"163",
"188",
"176",
"201",
"215",
"234",
"223",
"213",
"144",
"173",
"127",
"157",
"215",
"240",
"211",
"169",
"170",
"180",
"185",
"196",
"182",
"176",
"153",
"224",
"174",
"186",
"222",
"201",
"146",
"163",
"155",
"164",
"145",
"156",
"127",
"127",
"156",
"153",
"150",
"160",
"146",
"140",
"146",
"167",
"166",
"186",
"152",
"172",
"158",
"165",
"144",
"149",
"152",
"144",
"151",
"145",
"128",
"137",
"138",
"142",
"135",
"146",
"130",
"119",
"135",
"162",
"118",
"137",
"157",
"137",
"133",
"133",
"143",
"150",
"157",
"134",
"117",
"145",
"133",
"111",
"107",
"130",
"107",
"131",
"132",
"134",
"114",
"114",
"125",
"131",
"126",
"143",
"115",
"134",
"119",
"115",
"115",
"114",
"116",
"91",
"128",
"107",
"120",
"118",
"110",
"109",
"114",
"123",
"87",
"110",
"90",
"110",
"94",
"99",
"98",
"114",
"103",
"107",
"109",
"116",
"85",
"96",
"110",
"87",
"83",
"83",
"104",
"76",
"87",
"104",
"109",
"95",
"86",
"97",
"93",
"98",
"93",
"93",
"111",
"78",
"107",
"92",
"87",
"91",
"95",
"89",
"101",
"92",
"92",
"110",
"91",
"102",
"110",
"111",
"109",
"153",
"131",
"176",
"228",
"253",
"321",
"441",
"462",
"570",
"534",
"630",
"495",
"415",
"303",
"261",
"202",
"163",
"132",
"164",
"202",
"266",
"368",
"412",
"339",
"213",
"121",
"82",
"78",
"56130",
"Channel_info_start",
"Channel : Mg",
"Points : 0",
"Range : 0.000000 - 0.000000",
"Step : 0.010000",
"Channel_info_end",
"Channel_info_start",
"Channel : Al",
"Points : 0",
"Range : 0.000000 - 0.000000",
"Step : 0.010000",
"Channel_info_end",
"Channel_info_start",
"Channel : Si",
"Points : 0",
"Range : 0.000000 - 0.000000",
"Step : 0.010000",
"Channel_info_end",
"Channel_info_start",
"Channel : P ",
"Points : 0",
"Range : 0.000000 - 0.000000",
"Step : 0.010000",
"Channel_info_end",
"Channel_info_start",
"Channel : S ",
"Points : 0",
"Range : 0.000000 - 0.000000",
"Step : 0.010000",
"Channel_info_end",
"Channel_info_start",
"Channel : Cl",
"Points : 0",
"Range : 0.000000 - 0.000000",
"Step : 0.010000",
"Channel_info_end",
"Channel_info_start",
"Channel : K ",
"Points : 0",
"Range : 0.000000 - 0.000000",
"Step : 0.010000",
"Channel_info_end",
"Channel_info_start",
"Channel : Ca",
"Points : 0",
"Range : 0.000000 - 0.000000",
"Step : 0.010000",
"Channel_info_end",
"Channel_info_start",
"Channel : Ti",
"Points : 0",
"Range : 0.000000 - 0.000000",
"Step : 0.010000",
"Channel_info_end",
"Channel_info_start",
"Channel : V ",
"Points : 0",
"Range : 0.000000 - 0.000000",
"Step : 0.010000",
"Channel_info_end",
"Channel_info_start",
"Channel : Cr",
"Points : 0",
"Range : 0.000000 - 0.000000",
"Step : 0.010000",
"Channel_info_end",
"Channel_info_start",
"Channel : Mn",
"Points : 0",
"Range : 0.000000 - 0.000000",
"Step : 0.010000",
"Channel_info_end",
"Channel_info_start",
"Channel : Fe",
"Points : 0",
"Range : 0.000000 - 0.000000",
"Step : 0.010000",
"Channel_info_end",
"Channel_info_start",
"Channel : Cu",
"Points : 0",
"Range : 0.000000 - 0.000000",
"Step : 0.010000",
"Channel_info_end",
"Channel_info_start",
"Channel : Zn",
"Points : 0",
"Range : 0.000000 - 0.000000",
"Step : 0.010000",
"Channel_info_end",
"Channel_info_start",
"Channel : Sr",
"Points : 0",
"Range : 0.000000 - 0.000000",
"Step : 0.010000",
"Channel_info_end",
"Channel_info_start",
"Channel : Pb",
"Points : 0",
"Range : 0.000000 - 0.000000",
"Step : 0.010000",
"Channel_info_end",
"",
"Qualitative Result",
"--------------------------------------------------------------------------------",
"Element :  P , Ba, Ca, Te, Pr",
"",
"Peak List",
"--------------------------------------------------------------------------------",
"Channel               Line        keV     Net Int.(cps/uA)",
"--------------------------------------------------------------------------------",
"Na                    P Ka         2.01     0.019",
"                      BaLaESC      2.72     0.026",
"                      BaLb1ESC     3.09     0.010",
"                      CaKa         3.69     0.279",
"                      BaLL         3.96     0.093",
"                      TeLb1        3.96     0.044",
"                      BaLa         4.47     3.103",
"                      BaLb1        4.84     1.973",
"                      BaLb2        5.16     0.474",
"                      BaLg1        5.54     0.186",
"                      PrLb1        5.54     0.055",
"                      BaLg2        5.80     0.127",
"                      ----         8.08     0.022",
"                      ----        19.12     0.133",
"                      ----        19.40     0.072",
"--------------------------------------------------------------------------------",
"",
"Quantitative Result",
"--------------------------------------------------------------------------------",
"Analyte               Result             Std.Dev. Proc.-Calc. Line Intensity(cps/uA)",
"--------------------------------------------------------------------------------",
"====[No. 1 Layer]====< Layer1               >===============================",
"Layer1                   0.000 ug/cm2    -------- Flux       -------- --------",