File: inputs/edxCalibration/edx_raw/2010-06/BaFe 31514.20100611033638.csv
"Sample    : BaFe 31514",
"Operator  : Luís",
"Comment  : cubatao-g-policarbonato",
"Group     : kerr2007ag180cal_lt",
"Date       : 2010-06-11 03:32:27",
"",
"Mesurement Condition",
"------------------------------------------------------------------------------------",
"Instrument : 700HS2   Atmosphere : Vac.   Collimator : 10(mm)   Spin : No",
"------------------------------------------------------------------------------------",
"Analyte               TG kV   uA      FI Acq.(keV)  Anal.(keV)  Time(sec)     DT(%)",
"------------------------------------------------------------------------------------",
"Na                    Rh 50  360-Auto Al  0 - 20    0.8 - 1.2   Live -  179   15",
"",
"<Profile>",
"Channel_info_start",
"Channel : Na",
"Points : 2048",
"Range : 0.000000 - 20.48",
"Step : 0.010000",
"Channel_info_end",
"0",
"0",
"0",
"0",
"0",
"28",
"32",
"36",
"34",
"37",
"38",
"52",
"41",
"36",
"53",
"69",
"40",
"29",
"23",
"30",
"28",
"47",
"36",
"36",
"49",
"40",
"50",
"40",
"103",
"138",
"46",
"38",
"33",
"29",
"35",
"36",
"40",
"49",
"111",
"154",
"75",
"53",
"45",
"66",
"102",
"87",
"59",
"60",
"48",
"80",
"76",
"217",
"921",
"1335",
"443",
"273",
"622",
"840",
"346",
"174",
"200",
"416",
"1954",
"10046",
"14905",
"5339",
"669",
"786",
"4720",
"9730",
"6213",
"2374",
"1039",
"2135",
"2239",
"932",
"227",
"267",
"786",
"1343",
"786",
"340",
"567",
"736",
"405",
"247",
"190",
"133",
"97",
"131",
"146",
"168",
"155",
"157",
"136",
"129",
"137",
"123",
"108",
"143",
"129",
"120",
"131",
"157",
"163",
"171",
"142",
"164",
"169",
"152",
"139",
"170",
"166",
"171",
"184",
"249",
"173",
"209",
"190",
"149",
"133",
"160",
"167",
"198",
"205",
"181",
"156",
"164",
"169",
"138",
"168",
"174",
"194",
"174",
"156",
"171",
"162",
"191",
"170",
"164",
"145",
"173",
"144",
"149",
"121",
"122",
"156",
"164",
"136",
"136",
"138",
"146",
"117",
"179",
"174",
"157",
"147",
"156",
"140",
"143",
"131",
"122",
"139",
"152",
"140",
"152",
"137",
"135",
"137",
"135",
"149",
"121",
"138",
"122",
"147",
"130",
"117",
"134",
"124",
"145",
"125",
"124",
"145",
"129",
"130",
"115",
"112",
"111",
"113",
"110",
"121",
"112",
"115",
"132",
"107",
"115",
"117",
"89",
"110",
"97",
"114",
"122",
"134",
"119",
"117",
"115",
"118",
"134",
"107",
"97",
"95",
"109",
"117",
"89",
"102",
"86",
"96",
"102",
"81",
"95",
"91",
"71",
"89",
"110",
"100",
"96",
"88",
"96",
"87",
"84",
"84",
"99",
"90",
"74",
"80",
"86",
"101",
"90",
"88",
"88",
"85",
"84",
"84",
"91",
"89",
"72",
"81",
"78",
"93",
"93",
"66",
"80",
"83",
"96",
"93",
"88",
"100",
"75",
"86",
"96",
"83",
"77",
"102",
"93",
"134",
"109",
"125",
"138",
"198",
"273",
"272",
"408",
"464",
"525",
"516",
"496",
"469",
"370",
"279",
"210",
"186",
"118",
"127",
"138",
"169",
"284",
"316",
"338",
"337",
"209",
"129",
"68",
"83",
"52650",
"Channel_info_start",
"Channel : Mg",
"Points : 0",
"Range : 0.000000 - 0.000000",
"Step : 0.010000",
"Channel_info_end",
"Channel_info_start",
"Channel : Al",
"Points : 0",
"Range : 0.000000 - 0.000000",
"Step : 0.010000",
"Channel_info_end",
"Channel_info_start",
"Channel : Si",
"Points : 0",
"Range : 0.000000 - 0.000000",
"Step : 0.010000",
"Channel_info_end",
"Channel_info_start",
"Channel : P ",
"Points : 0",
"Range : 0.000000 - 0.000000",
"Step : 0.010000",
"Channel_info_end",
"Channel_info_start",
"Channel : S ",
"Points : 0",
"Range : 0.000000 - 0.000000",
"Step : 0.010000",
"Channel_info_end",
"Channel_info_start",
"Channel : Cl",
"Points : 0",
"Range : 0.000000 - 0.000000",
"Step : 0.010000",
"Channel_info_end",
"Channel_info_start",
"Channel : K ",
"Points : 0",
"Range : 0.000000 - 0.000000",
"Step : 0.010000",
"Channel_info_end",
"Channel_info_start",
"Channel : Ca",
"Points : 0",
"Range : 0.000000 - 0.000000",
"Step : 0.010000",
"Channel_info_end",
"Channel_info_start",
"Channel : Ti",
"Points : 0",
"Range : 0.000000 - 0.000000",
"Step : 0.010000",
"Channel_info_end",
"Channel_info_start",
"Channel : V ",
"Points : 0",
"Range : 0.000000 - 0.000000",
"Step : 0.010000",
"Channel_info_end",
"Channel_info_start",
"Channel : Cr",
"Points : 0",
"Range : 0.000000 - 0.000000",
"Step : 0.010000",
"Channel_info_end",
"Channel_info_start",
"Channel : Mn",
"Points : 0",
"Range : 0.000000 - 0.000000",
"Step : 0.010000",
"Channel_info_end",
"Channel_info_start",
"Channel : Fe",
"Points : 0",
"Range : 0.000000 - 0.000000",
"Step : 0.010000",
"Channel_info_end",
"Channel_info_start",
"Channel : Cu",
"Points : 0",
"Range : 0.000000 - 0.000000",
"Step : 0.010000",
"Channel_info_end",
"Channel_info_start",
"Channel : Zn",
"Points : 0",
"Range : 0.000000 - 0.000000",
"Step : 0.010000",
"Channel_info_end",
"Channel_info_start",
"Channel : Sr",
"Points : 0",
"Range : 0.000000 - 0.000000",
"Step : 0.010000",
"Channel_info_end",
"Channel_info_start",
"Channel : Pb",
"Points : 0",
"Range : 0.000000 - 0.000000",
"Step : 0.010000",
"Channel_info_end",
"",
"Qualitative Result",
"--------------------------------------------------------------------------------",
"Element :  Na, P , Ba, Ca, Te, Pr, Rh",
"",
"Peak List",
"--------------------------------------------------------------------------------",
"Channel               Line        keV     Net Int.(cps/uA)",
"--------------------------------------------------------------------------------",
"Na                    NaKa         1.04     0.007",
"                      P Ka         2.01     0.020",
"                      BaLaESC      2.72     0.024",
"                      BaLb1ESC     3.12     0.013",
"                      CaKa         3.68     0.284",
"                      BaLL         3.96     0.099",
"                      TeLb1        3.96     0.043",
"                      BaLa         4.46     3.296",
"                      BaLb1        4.84     2.118",
"                      BaLb2        5.16     0.507",
"                      BaLg1        5.52     0.198",
"                      PrLb1        5.52     0.067",
"                      BaLg2        5.79     0.140",
"                      ----         8.08     0.026",
"                      RhKaC       19.20     0.140",
"                      RhKa        20.08     0.090",
"--------------------------------------------------------------------------------",
"",
"Quantitative Result",
"--------------------------------------------------------------------------------",
"Analyte               Result             Std.Dev. Proc.-Calc. Line Intensity(cps/uA)",
"--------------------------------------------------------------------------------",
"====[No. 1 Layer]====< Layer1               >===============================",
"Layer1                   7.215 ug/cm2    -------- Flux       -------- --------",
"Na                       7.215 ug/cm2    -------- ********** -------- --------",