File: inputs/edxCalibration/edx_raw/2010-06/Bi 15773.20100526014213.csv
"Sample    : Bi 15773",
"Operator  : luisf",
"Comment  : cubatao-g-policarbonato",
"Group     : kerr2007ag180cal_lt",
"Date       : 2010-05-26 01:38:07",
"",
"Mesurement Condition",
"------------------------------------------------------------------------------------",
"Instrument : 700HS2   Atmosphere : Vac.   Collimator : 10(mm)   Spin : No",
"------------------------------------------------------------------------------------",
"Analyte               TG kV   uA      FI Acq.(keV)  Anal.(keV)  Time(sec)     DT(%)",
"------------------------------------------------------------------------------------",
"Na                    Rh 50  187-Auto Al  0 - 20    0.8 - 1.2   Live -  179   16",
"",
"<Profile>",
"Channel_info_start",
"Channel : Na",
"Points : 2048",
"Range : 0.000000 - 20.48",
"Step : 0.010000",
"Channel_info_end",
"0",
"0",
"0",
"0",
"0",
"33",
"31",
"32",
"38",
"59",
"100",
"82",
"51",
"43",
"27",
"34",
"34",
"31",
"29",
"39",
"34",
"44",
"37",
"41",
"58",
"62",
"105",
"374",
"223",
"148",
"142",
"201",
"239",
"465",
"2362",
"4564",
"3777",
"1703",
"354",
"509",
"329",
"105",
"80",
"96",
"81",
"132",
"209",
"139",
"72",
"31",
"31",
"110",
"485",
"730",
"207",
"56",
"59",
"123",
"89",
"33",
"17",
"31",
"47",
"34",
"44",
"56",
"47",
"46",
"35",
"44",
"31",
"38",
"45",
"39",
"38",
"44",
"32",
"48",
"41",
"58",
"72",
"90",
"86",
"90",
"75",
"66",
"59",
"69",
"66",
"58",
"76",
"97",
"95",
"94",
"78",
"86",
"82",
"83",
"76",
"84",
"59",
"101",
"77",
"88",
"99",
"90",
"92",
"128",
"107",
"97",
"92",
"95",
"84",
"107",
"123",
"117",
"100",
"100",
"94",
"82",
"92",
"109",
"124",
"160",
"143",
"141",
"131",
"122",
"131",
"136",
"130",
"159",
"162",
"355",
"651",
"727",
"411",
"244",
"110",
"107",
"104",
"109",
"104",
"89",
"113",
"117",
"126",
"97",
"99",
"134",
"169",
"466",
"1770",
"5112",
"9001",
"10548",
"6240",
"2202",
"517",
"182",
"112",
"137",
"124",
"110",
"114",
"133",
"177",
"248",
"196",
"192",
"118",
"89",
"87",
"104",
"85",
"105",
"139",
"201",
"309",
"340",
"459",
"542",
"636",
"1234",
"3354",
"6320",
"6805",
"5033",
"2371",
"1064",
"558",
"498",
"389",
"240",
"151",
"141",
"116",
"84",
"85",
"66",
"76",
"73",
"77",
"62",
"74",
"68",
"70",
"62",
"83",
"87",
"118",
"114",
"96",
"94",
"107",
"305",
"597",
"1007",
"990",
"774",
"395",
"264",
"267",
"319",
"341",
"276",
"174",
"96",
"80",
"69",
"74",
"95",
"92",
"78",
"94",
"62",
"36",
"53",
"40",
"48",
"46",
"58",
"58",
"44",
"52",
"53",
"51",
"47",
"44",
"51",
"49",
"59",
"58",
"47",
"46",
"51",
"64",
"43",
"54",
"49",
"61",
"56",
"57",
"64",
"59",
"73",
"83",
"65",
"96",
"109",
"158",
"222",
"274",
"270",
"302",
"277",
"231",
"219",
"165",
"134",
"123",
"76",
"82",
"90",
"124",
"168",
"231",
"287",
"260",
"154",
"101",
"52",
"44",
"23763",
"Channel_info_start",
"Channel : Mg",
"Points : 0",
"Range : 0.000000 - 0.000000",
"Step : 0.010000",
"Channel_info_end",
"Channel_info_start",
"Channel : Al",
"Points : 0",
"Range : 0.000000 - 0.000000",
"Step : 0.010000",
"Channel_info_end",
"Channel_info_start",
"Channel : Si",
"Points : 0",
"Range : 0.000000 - 0.000000",
"Step : 0.010000",
"Channel_info_end",
"Channel_info_start",
"Channel : P ",
"Points : 0",
"Range : 0.000000 - 0.000000",
"Step : 0.010000",
"Channel_info_end",
"Channel_info_start",
"Channel : S ",
"Points : 0",
"Range : 0.000000 - 0.000000",
"Step : 0.010000",
"Channel_info_end",
"Channel_info_start",
"Channel : Cl",
"Points : 0",
"Range : 0.000000 - 0.000000",
"Step : 0.010000",
"Channel_info_end",
"Channel_info_start",
"Channel : K ",
"Points : 0",
"Range : 0.000000 - 0.000000",
"Step : 0.010000",
"Channel_info_end",
"Channel_info_start",
"Channel : Ca",
"Points : 0",
"Range : 0.000000 - 0.000000",
"Step : 0.010000",
"Channel_info_end",
"Channel_info_start",
"Channel : Ti",
"Points : 0",
"Range : 0.000000 - 0.000000",
"Step : 0.010000",
"Channel_info_end",
"Channel_info_start",
"Channel : V ",
"Points : 0",
"Range : 0.000000 - 0.000000",
"Step : 0.010000",
"Channel_info_end",
"Channel_info_start",
"Channel : Cr",
"Points : 0",
"Range : 0.000000 - 0.000000",
"Step : 0.010000",
"Channel_info_end",
"Channel_info_start",
"Channel : Mn",
"Points : 0",
"Range : 0.000000 - 0.000000",
"Step : 0.010000",
"Channel_info_end",
"Channel_info_start",
"Channel : Fe",
"Points : 0",
"Range : 0.000000 - 0.000000",
"Step : 0.010000",
"Channel_info_end",
"Channel_info_start",
"Channel : Cu",
"Points : 0",
"Range : 0.000000 - 0.000000",
"Step : 0.010000",
"Channel_info_end",
"Channel_info_start",
"Channel : Zn",
"Points : 0",
"Range : 0.000000 - 0.000000",
"Step : 0.010000",
"Channel_info_end",
"Channel_info_start",
"Channel : Sr",
"Points : 0",
"Range : 0.000000 - 0.000000",
"Step : 0.010000",
"Channel_info_end",
"Channel_info_start",
"Channel : Pb",
"Points : 0",
"Range : 0.000000 - 0.000000",
"Step : 0.010000",
"Channel_info_end",
"",
"Qualitative Result",
"--------------------------------------------------------------------------------",
"Element :  Bi, Ca, Rb",
"",
"Peak List",
"--------------------------------------------------------------------------------",
"Channel               Line        keV     Net Int.(cps/uA)",
"--------------------------------------------------------------------------------",
"Na                    ----         0.67     0.022",
"                      ----         0.80     0.019",
"                      ----         1.90     0.092",
"                      BiMa         2.44     1.632",
"                      ----         2.75     0.156",
"                      ----         3.20     0.059",
"                      CaKa         3.70     0.286",
"                      CaKb         4.01     0.039",
"                      BiLL         9.40     0.338",
"                      BiLa        10.84     5.868",
"                      ----        11.69     0.080",
"                      BiLb4       12.63     0.093",
"                      BiLb1       13.00     3.968",
"                      RbKa        13.44     0.091",
"                      BiLg1       15.24     0.586",
"                      BiLg2       15.65     0.175",
"                      ----        19.13     0.147",
"                      ----        19.44     0.072",
"--------------------------------------------------------------------------------",
"",
"Quantitative Result",
"--------------------------------------------------------------------------------",
"Analyte               Result             Std.Dev. Proc.-Calc. Line Intensity(cps/uA)",
"--------------------------------------------------------------------------------",
"====[No. 1 Layer]====< Layer1               >===============================",
"Layer1                   0.000 ug/cm2    -------- Flux       -------- --------",