File: inputs/edxCalibration/edx_raw/2010-06/Bi 15773.20100626153131.csv
"Sample    : Bi 15773",
"Operator  : luis",
"Comment  : cubatao-g-policarbonato",
"Group     : kerr2007ag180cal_lt",
"Date       : 2010-06-26 15:25:30",
"",
"Mesurement Condition",
"------------------------------------------------------------------------------------",
"Instrument : 700HS2   Atmosphere : Vac.   Collimator : 10(mm)   Spin : No",
"------------------------------------------------------------------------------------",
"Analyte               TG kV   uA      FI Acq.(keV)  Anal.(keV)  Time(sec)     DT(%)",
"------------------------------------------------------------------------------------",
"Na                    Rh 50  187-Auto Al  0 - 20    0.8 - 1.2   Live -  179   15",
"",
"<Profile>",
"Channel_info_start",
"Channel : Na",
"Points : 2048",
"Range : 0.000000 - 20.48",
"Step : 0.010000",
"Channel_info_end",
"0",
"0",
"0",
"0",
"0",
"38",
"25",
"30",
"48",
"67",
"106",
"79",
"51",
"36",
"42",
"34",
"21",
"37",
"30",
"32",
"32",
"42",
"34",
"30",
"35",
"57",
"126",
"321",
"239",
"153",
"127",
"212",
"288",
"419",
"2292",
"4557",
"3621",
"1775",
"403",
"488",
"308",
"88",
"63",
"94",
"66",
"126",
"187",
"145",
"54",
"44",
"27",
"91",
"435",
"680",
"200",
"55",
"73",
"94",
"73",
"35",
"17",
"30",
"25",
"34",
"44",
"41",
"46",
"34",
"29",
"39",
"34",
"46",
"48",
"62",
"46",
"49",
"46",
"40",
"40",
"62",
"81",
"89",
"83",
"74",
"63",
"69",
"65",
"67",
"64",
"72",
"79",
"92",
"81",
"76",
"70",
"66",
"76",
"75",
"84",
"104",
"92",
"103",
"85",
"98",
"96",
"78",
"97",
"95",
"118",
"92",
"89",
"91",
"96",
"111",
"111",
"135",
"106",
"87",
"85",
"88",
"85",
"107",
"103",
"149",
"151",
"133",
"98",
"125",
"126",
"119",
"131",
"135",
"162",
"368",
"676",
"728",
"408",
"217",
"109",
"97",
"96",
"101",
"91",
"99",
"96",
"95",
"101",
"116",
"124",
"133",
"161",
"447",
"1545",
"4519",
"8672",
"10149",
"6523",
"2306",
"583",
"184",
"133",
"109",
"109",
"108",
"124",
"137",
"199",
"254",
"219",
"190",
"115",
"99",
"114",
"106",
"96",
"123",
"137",
"203",
"270",
"319",
"415",
"528",
"552",
"1165",
"3030",
"5935",
"6867",
"5210",
"2660",
"1126",
"618",
"481",
"347",
"252",
"151",
"107",
"111",
"92",
"84",
"85",
"72",
"71",
"65",
"73",
"63",
"60",
"63",
"74",
"82",
"86",
"95",
"106",
"101",
"82",
"122",
"246",
"612",
"948",
"1008",
"708",
"422",
"230",
"277",
"309",
"368",
"276",
"193",
"98",
"74",
"82",
"59",
"87",
"91",
"94",
"54",
"66",
"53",
"50",
"54",
"65",
"44",
"61",
"48",
"45",
"51",
"32",
"40",
"47",
"49",
"53",
"54",
"50",
"52",
"46",
"49",
"57",
"70",
"46",
"47",
"51",
"57",
"54",
"79",
"51",
"66",
"55",
"62",
"82",
"115",
"143",
"148",
"219",
"263",
"321",
"289",
"301",
"260",
"243",
"174",
"148",
"134",
"78",
"64",
"88",
"120",
"162",
"201",
"237",
"243",
"195",
"90",
"70",
"48",
"23342",
"Channel_info_start",
"Channel : Mg",
"Points : 0",
"Range : 0.000000 - 0.000000",
"Step : 0.010000",
"Channel_info_end",
"Channel_info_start",
"Channel : Al",
"Points : 0",
"Range : 0.000000 - 0.000000",
"Step : 0.010000",
"Channel_info_end",
"Channel_info_start",
"Channel : Si",
"Points : 0",
"Range : 0.000000 - 0.000000",
"Step : 0.010000",
"Channel_info_end",
"Channel_info_start",
"Channel : P ",
"Points : 0",
"Range : 0.000000 - 0.000000",
"Step : 0.010000",
"Channel_info_end",
"Channel_info_start",
"Channel : S ",
"Points : 0",
"Range : 0.000000 - 0.000000",
"Step : 0.010000",
"Channel_info_end",
"Channel_info_start",
"Channel : Cl",
"Points : 0",
"Range : 0.000000 - 0.000000",
"Step : 0.010000",
"Channel_info_end",
"Channel_info_start",
"Channel : K ",
"Points : 0",
"Range : 0.000000 - 0.000000",
"Step : 0.010000",
"Channel_info_end",
"Channel_info_start",
"Channel : Ca",
"Points : 0",
"Range : 0.000000 - 0.000000",
"Step : 0.010000",
"Channel_info_end",
"Channel_info_start",
"Channel : Ti",
"Points : 0",
"Range : 0.000000 - 0.000000",
"Step : 0.010000",
"Channel_info_end",
"Channel_info_start",
"Channel : V ",
"Points : 0",
"Range : 0.000000 - 0.000000",
"Step : 0.010000",
"Channel_info_end",
"Channel_info_start",
"Channel : Cr",
"Points : 0",
"Range : 0.000000 - 0.000000",
"Step : 0.010000",
"Channel_info_end",
"Channel_info_start",
"Channel : Mn",
"Points : 0",
"Range : 0.000000 - 0.000000",
"Step : 0.010000",
"Channel_info_end",
"Channel_info_start",
"Channel : Fe",
"Points : 0",
"Range : 0.000000 - 0.000000",
"Step : 0.010000",
"Channel_info_end",
"Channel_info_start",
"Channel : Cu",
"Points : 0",
"Range : 0.000000 - 0.000000",
"Step : 0.010000",
"Channel_info_end",
"Channel_info_start",
"Channel : Zn",
"Points : 0",
"Range : 0.000000 - 0.000000",
"Step : 0.010000",
"Channel_info_end",
"Channel_info_start",
"Channel : Sr",
"Points : 0",
"Range : 0.000000 - 0.000000",
"Step : 0.010000",
"Channel_info_end",
"Channel_info_start",
"Channel : Pb",
"Points : 0",
"Range : 0.000000 - 0.000000",
"Step : 0.010000",
"Channel_info_end",
"",
"Qualitative Result",
"--------------------------------------------------------------------------------",
"Element :  Bi, Ca, Rh",
"",
"Peak List",
"--------------------------------------------------------------------------------",
"Channel               Line        keV     Net Int.(cps/uA)",
"--------------------------------------------------------------------------------",
"Na                    ----         0.68     0.023",
"                      ----         0.80     0.017",
"                      ----         1.90     0.084",
"                      ----         2.21     0.053",
"                      BiMa         2.44     1.607",
"                      ----         2.77     0.127",
"                      ----         3.22     0.056",
"                      CaKa         3.68     0.287",
"                      CaKb         4.04     0.042",
"                      BiLL         9.41     0.340",
"                      BiLa        10.84     5.773",
"                      ----        11.73     0.081",
"                      BiLb4       12.68     0.114",
"                      BiLb1       13.01     3.867",
"                      ----        13.43     0.078",
"                      BiLg1       15.24     0.604",
"                      BiLg2       15.67     0.148",
"                      RhKaC       19.20     0.147",
"                      RhKa        20.07     0.135",
"--------------------------------------------------------------------------------",
"",
"Quantitative Result",
"--------------------------------------------------------------------------------",
"Analyte               Result             Std.Dev. Proc.-Calc. Line Intensity(cps/uA)",
"--------------------------------------------------------------------------------",
"====[No. 1 Layer]====< Layer1               >===============================",
"Layer1                   0.000 ug/cm2    -------- Flux       -------- --------",