File: inputs/edxCalibration/edx_raw/2010-06/CaF2 31497.20100525205958.csv
"Sample    : CaF2 31497",
"Operator  : luisf",
"Comment  : cubatao-g-policarbonato",
"Group     : kerr2007ag180cal_lt",
"Date       : 2010-05-25 20:55:44",
"",
"Mesurement Condition",
"------------------------------------------------------------------------------------",
"Instrument : 700HS2   Atmosphere : Vac.   Collimator : 10(mm)   Spin : No",
"------------------------------------------------------------------------------------",
"Analyte               TG kV   uA      FI Acq.(keV)  Anal.(keV)  Time(sec)     DT(%)",
"------------------------------------------------------------------------------------",
"Na                    Rh 50  548-Auto Al  0 - 20    0.8 - 1.2   Live -  179   16",
"",
"<Profile>",
"Channel_info_start",
"Channel : Na",
"Points : 2048",
"Range : 0.000000 - 20.48",
"Step : 0.010000",
"Channel_info_end",
"0",
"0",
"0",
"0",
"0",
"34",
"27",
"24",
"19",
"38",
"30",
"35",
"20",
"33",
"25",
"34",
"34",
"34",
"27",
"44",
"32",
"41",
"35",
"51",
"118",
"165",
"113",
"263",
"415",
"263",
"61",
"56",
"68",
"83",
"30",
"46",
"41",
"60",
"58",
"66",
"51",
"76",
"71",
"99",
"129",
"171",
"162",
"173",
"187",
"215",
"402",
"2956",
"18863",
"27517",
"7876",
"728",
"1170",
"3436",
"2595",
"566",
"68",
"69",
"78",
"91",
"120",
"104",
"85",
"86",
"83",
"88",
"76",
"73",
"72",
"84",
"76",
"88",
"70",
"74",
"82",
"91",
"88",
"90",
"97",
"111",
"99",
"109",
"136",
"143",
"155",
"157",
"208",
"301",
"251",
"177",
"176",
"171",
"186",
"186",
"216",
"221",
"229",
"226",
"199",
"212",
"222",
"185",
"185",
"210",
"198",
"180",
"199",
"199",
"188",
"245",
"297",
"492",
"634",
"574",
"312",
"222",
"210",
"229",
"228",
"300",
"261",
"188",
"183",
"182",
"188",
"190",
"205",
"220",
"349",
"413",
"431",
"288",
"294",
"296",
"251",
"251",
"195",
"186",
"148",
"172",
"186",
"206",
"183",
"183",
"194",
"200",
"161",
"199",
"199",
"193",
"218",
"224",
"234",
"221",
"183",
"187",
"205",
"157",
"167",
"169",
"159",
"172",
"176",
"159",
"169",
"149",
"171",
"184",
"166",
"159",
"153",
"161",
"150",
"161",
"154",
"157",
"162",
"159",
"130",
"170",
"164",
"150",
"164",
"160",
"138",
"148",
"157",
"167",
"174",
"139",
"120",
"148",
"151",
"139",
"126",
"126",
"152",
"142",
"132",
"139",
"137",
"132",
"137",
"141",
"132",
"126",
"143",
"114",
"127",
"130",
"123",
"146",
"119",
"137",
"125",
"135",
"126",
"137",
"125",
"114",
"132",
"125",
"122",
"137",
"117",
"115",
"108",
"102",
"129",
"108",
"102",
"130",
"132",
"127",
"123",
"119",
"114",
"115",
"113",
"112",
"117",
"107",
"115",
"106",
"106",
"134",
"126",
"115",
"103",
"123",
"117",
"120",
"118",
"114",
"118",
"138",
"134",
"119",
"135",
"143",
"162",
"145",
"189",
"261",
"290",
"351",
"476",
"591",
"705",
"781",
"764",
"774",
"709",
"568",
"458",
"356",
"264",
"228",
"172",
"190",
"193",
"269",
"359",
"319",
"323",
"194",
"140",
"118",
"116",
"54204",
"Channel_info_start",
"Channel : Mg",
"Points : 0",
"Range : 0.000000 - 0.000000",
"Step : 0.010000",
"Channel_info_end",
"Channel_info_start",
"Channel : Al",
"Points : 0",
"Range : 0.000000 - 0.000000",
"Step : 0.010000",
"Channel_info_end",
"Channel_info_start",
"Channel : Si",
"Points : 0",
"Range : 0.000000 - 0.000000",
"Step : 0.010000",
"Channel_info_end",
"Channel_info_start",
"Channel : P ",
"Points : 0",
"Range : 0.000000 - 0.000000",
"Step : 0.010000",
"Channel_info_end",
"Channel_info_start",
"Channel : S ",
"Points : 0",
"Range : 0.000000 - 0.000000",
"Step : 0.010000",
"Channel_info_end",
"Channel_info_start",
"Channel : Cl",
"Points : 0",
"Range : 0.000000 - 0.000000",
"Step : 0.010000",
"Channel_info_end",
"Channel_info_start",
"Channel : K ",
"Points : 0",
"Range : 0.000000 - 0.000000",
"Step : 0.010000",
"Channel_info_end",
"Channel_info_start",
"Channel : Ca",
"Points : 0",
"Range : 0.000000 - 0.000000",
"Step : 0.010000",
"Channel_info_end",
"Channel_info_start",
"Channel : Ti",
"Points : 0",
"Range : 0.000000 - 0.000000",
"Step : 0.010000",
"Channel_info_end",
"Channel_info_start",
"Channel : V ",
"Points : 0",
"Range : 0.000000 - 0.000000",
"Step : 0.010000",
"Channel_info_end",
"Channel_info_start",
"Channel : Cr",
"Points : 0",
"Range : 0.000000 - 0.000000",
"Step : 0.010000",
"Channel_info_end",
"Channel_info_start",
"Channel : Mn",
"Points : 0",
"Range : 0.000000 - 0.000000",
"Step : 0.010000",
"Channel_info_end",
"Channel_info_start",
"Channel : Fe",
"Points : 0",
"Range : 0.000000 - 0.000000",
"Step : 0.010000",
"Channel_info_end",
"Channel_info_start",
"Channel : Cu",
"Points : 0",
"Range : 0.000000 - 0.000000",
"Step : 0.010000",
"Channel_info_end",
"Channel_info_start",
"Channel : Zn",
"Points : 0",
"Range : 0.000000 - 0.000000",
"Step : 0.010000",
"Channel_info_end",
"Channel_info_start",
"Channel : Sr",
"Points : 0",
"Range : 0.000000 - 0.000000",
"Step : 0.010000",
"Channel_info_end",
"Channel_info_start",
"Channel : Pb",
"Points : 0",
"Range : 0.000000 - 0.000000",
"Step : 0.010000",
"Channel_info_end",
"",
"Qualitative Result",
"--------------------------------------------------------------------------------",
"Element :  Ta, P , Ca, Fe, Zn, Ru",
"",
"Peak List",
"--------------------------------------------------------------------------------",
"Channel               Line        keV     Net Int.(cps/uA)",
"--------------------------------------------------------------------------------",
"Na                    TaMa         1.74     0.017",
"                      P Ka         1.97     0.047",
"                      CaKa         3.68     4.025",
"                      CaKb         4.02     0.496",
"                      FeKa         6.36     0.023",
"                      TaLa         8.15     0.081",
"                      ZnKa         8.62     0.020",
"                      TaLb1        9.36     0.047",
"                      ZnKb         9.57     0.003",
"                      TaLb2        9.59     0.019",
"                      RuKa        19.15     0.123",
"                      ----        19.41     0.073",
"                      ----        20.02     0.047",
"--------------------------------------------------------------------------------",
"",
"Quantitative Result",
"--------------------------------------------------------------------------------",
"Analyte               Result             Std.Dev. Proc.-Calc. Line Intensity(cps/uA)",
"--------------------------------------------------------------------------------",
"====[No. 1 Layer]====< Layer1               >===============================",
"Layer1                   0.000 ug/cm2    -------- Flux       -------- --------",