File: inputs/edxCalibration/edx_raw/2010-06/CaF2 31497.20100610235629.csv
"Sample    : CaF2 31497",
"Operator  : thiago",
"Comment  : cubatao-g-policarbonato",
"Group     : kerr2007ag180cal_lt",
"Date       : 2010-06-10 23:52:16",
"",
"Mesurement Condition",
"------------------------------------------------------------------------------------",
"Instrument : 700HS2   Atmosphere : Vac.   Collimator : 10(mm)   Spin : No",
"------------------------------------------------------------------------------------",
"Analyte               TG kV   uA      FI Acq.(keV)  Anal.(keV)  Time(sec)     DT(%)",
"------------------------------------------------------------------------------------",
"Na                    Rh 50  548-Auto Al  0 - 20    0.8 - 1.2   Live -  179   15",
"",
"<Profile>",
"Channel_info_start",
"Channel : Na",
"Points : 2048",
"Range : 0.000000 - 20.48",
"Step : 0.010000",
"Channel_info_end",
"0",
"0",
"0",
"0",
"1",
"37",
"22",
"24",
"25",
"34",
"21",
"37",
"23",
"23",
"24",
"42",
"22",
"37",
"43",
"32",
"38",
"50",
"47",
"48",
"117",
"159",
"118",
"238",
"430",
"240",
"73",
"47",
"72",
"57",
"39",
"35",
"33",
"32",
"61",
"48",
"57",
"83",
"77",
"116",
"114",
"175",
"187",
"195",
"185",
"242",
"370",
"2966",
"18874",
"26895",
"7576",
"693",
"1100",
"3447",
"2451",
"571",
"65",
"57",
"55",
"86",
"107",
"108",
"101",
"95",
"87",
"85",
"71",
"69",
"65",
"77",
"77",
"87",
"75",
"95",
"84",
"93",
"102",
"84",
"103",
"89",
"106",
"109",
"130",
"130",
"142",
"176",
"177",
"293",
"225",
"198",
"150",
"147",
"188",
"192",
"200",
"213",
"211",
"238",
"215",
"215",
"189",
"197",
"203",
"198",
"141",
"212",
"168",
"183",
"200",
"219",
"268",
"482",
"641",
"550",
"322",
"214",
"207",
"222",
"252",
"289",
"264",
"220",
"178",
"192",
"174",
"174",
"205",
"256",
"316",
"443",
"347",
"287",
"266",
"294",
"265",
"221",
"184",
"168",
"131",
"153",
"175",
"156",
"192",
"201",
"194",
"159",
"144",
"198",
"201",
"214",
"176",
"207",
"209",
"209",
"183",
"178",
"195",
"177",
"177",
"185",
"152",
"167",
"164",
"177",
"174",
"160",
"189",
"172",
"168",
"159",
"161",
"166",
"159",
"166",
"154",
"157",
"136",
"171",
"151",
"130",
"144",
"173",
"136",
"162",
"178",
"128",
"145",
"170",
"173",
"167",
"137",
"126",
"128",
"141",
"132",
"142",
"138",
"127",
"159",
"127",
"166",
"126",
"143",
"142",
"152",
"116",
"132",
"122",
"129",
"113",
"130",
"117",
"106",
"129",
"121",
"121",
"140",
"132",
"141",
"118",
"125",
"118",
"113",
"142",
"110",
"120",
"131",
"136",
"115",
"116",
"117",
"107",
"115",
"89",
"117",
"101",
"110",
"117",
"97",
"102",
"96",
"109",
"94",
"139",
"114",
"103",
"107",
"131",
"117",
"101",
"107",
"115",
"138",
"125",
"121",
"138",
"141",
"135",
"110",
"164",
"186",
"154",
"167",
"227",
"313",
"384",
"442",
"541",
"724",
"782",
"783",
"756",
"696",
"565",
"452",
"363",
"255",
"194",
"171",
"203",
"209",
"281",
"330",
"325",
"293",
"211",
"140",
"108",
"98",
"53858",
"Channel_info_start",
"Channel : Mg",
"Points : 0",
"Range : 0.000000 - 0.000000",
"Step : 0.010000",
"Channel_info_end",
"Channel_info_start",
"Channel : Al",
"Points : 0",
"Range : 0.000000 - 0.000000",
"Step : 0.010000",
"Channel_info_end",
"Channel_info_start",
"Channel : Si",
"Points : 0",
"Range : 0.000000 - 0.000000",
"Step : 0.010000",
"Channel_info_end",
"Channel_info_start",
"Channel : P ",
"Points : 0",
"Range : 0.000000 - 0.000000",
"Step : 0.010000",
"Channel_info_end",
"Channel_info_start",
"Channel : S ",
"Points : 0",
"Range : 0.000000 - 0.000000",
"Step : 0.010000",
"Channel_info_end",
"Channel_info_start",
"Channel : Cl",
"Points : 0",
"Range : 0.000000 - 0.000000",
"Step : 0.010000",
"Channel_info_end",
"Channel_info_start",
"Channel : K ",
"Points : 0",
"Range : 0.000000 - 0.000000",
"Step : 0.010000",
"Channel_info_end",
"Channel_info_start",
"Channel : Ca",
"Points : 0",
"Range : 0.000000 - 0.000000",
"Step : 0.010000",
"Channel_info_end",
"Channel_info_start",
"Channel : Ti",
"Points : 0",
"Range : 0.000000 - 0.000000",
"Step : 0.010000",
"Channel_info_end",
"Channel_info_start",
"Channel : V ",
"Points : 0",
"Range : 0.000000 - 0.000000",
"Step : 0.010000",
"Channel_info_end",
"Channel_info_start",
"Channel : Cr",
"Points : 0",
"Range : 0.000000 - 0.000000",
"Step : 0.010000",
"Channel_info_end",
"Channel_info_start",
"Channel : Mn",
"Points : 0",
"Range : 0.000000 - 0.000000",
"Step : 0.010000",
"Channel_info_end",
"Channel_info_start",
"Channel : Fe",
"Points : 0",
"Range : 0.000000 - 0.000000",
"Step : 0.010000",
"Channel_info_end",
"Channel_info_start",
"Channel : Cu",
"Points : 0",
"Range : 0.000000 - 0.000000",
"Step : 0.010000",
"Channel_info_end",
"Channel_info_start",
"Channel : Zn",
"Points : 0",
"Range : 0.000000 - 0.000000",
"Step : 0.010000",
"Channel_info_end",
"Channel_info_start",
"Channel : Sr",
"Points : 0",
"Range : 0.000000 - 0.000000",
"Step : 0.010000",
"Channel_info_end",
"Channel_info_start",
"Channel : Pb",
"Points : 0",
"Range : 0.000000 - 0.000000",
"Step : 0.010000",
"Channel_info_end",
"",
"Qualitative Result",
"--------------------------------------------------------------------------------",
"Element :  Ta, P , Ca, Ti, Fe, Zn",
"",
"Peak List",
"--------------------------------------------------------------------------------",
"Channel               Line        keV     Net Int.(cps/uA)",
"--------------------------------------------------------------------------------",
"Na                    TaMa         1.72     0.014",
"                      P Ka         1.96     0.047",
"                      CaKa         3.68     3.917",
"                      CaKb         4.02     0.497",
"                      TiKa         4.52     0.011",
"                      FeKa         6.36     0.023",
"                      TaLa         8.12     0.082",
"                      ZnKa         8.64     0.017",
"                      TaLb1        9.33     0.045",
"                      ----        19.19     0.129",
"                      ----        19.48     0.051",
"                      ----        19.94     0.027",
"--------------------------------------------------------------------------------",
"",
"Quantitative Result",
"--------------------------------------------------------------------------------",
"Analyte               Result             Std.Dev. Proc.-Calc. Line Intensity(cps/uA)",
"--------------------------------------------------------------------------------",
"====[No. 1 Layer]====< Layer1               >===============================",
"Layer1                   0.000 ug/cm2    -------- Flux       -------- --------",