File: inputs/edxCalibration/edx_raw/2010-06/CdSe 15766.20100611031545.csv
"Sample    : CdSe 15766",
"Operator  : Luís",
"Comment  : cubatao-g-policarbonato",
"Group     : kerr2007ag180cal_lt",
"Date       : 2010-06-11 03:09:43",
"",
"Mesurement Condition",
"------------------------------------------------------------------------------------",
"Instrument : 700HS2   Atmosphere : Vac.   Collimator : 10(mm)   Spin : No",
"------------------------------------------------------------------------------------",
"Analyte               TG kV   uA      FI Acq.(keV)  Anal.(keV)  Time(sec)     DT(%)",
"------------------------------------------------------------------------------------",
"Na                    Rh 50  237-Auto Al  0 - 20    0.8 - 1.2   Live -  179   14",
"",
"<Profile>",
"Channel_info_start",
"Channel : Na",
"Points : 2048",
"Range : 0.000000 - 20.48",
"Step : 0.010000",
"Channel_info_end",
"0",
"0",
"0",
"0",
"1",
"37",
"27",
"32",
"28",
"22",
"27",
"19",
"35",
"20",
"17",
"27",
"33",
"60",
"58",
"351",
"808",
"389",
"96",
"58",
"37",
"37",
"33",
"30",
"68",
"50",
"42",
"37",
"27",
"63",
"37",
"37",
"39",
"45",
"79",
"181",
"179",
"105",
"141",
"364",
"2335",
"3830",
"1334",
"1829",
"1738",
"792",
"477",
"518",
"514",
"693",
"263",
"82",
"174",
"176",
"96",
"36",
"28",
"28",
"37",
"49",
"30",
"46",
"53",
"35",
"39",
"44",
"22",
"39",
"44",
"38",
"37",
"39",
"57",
"71",
"56",
"59",
"50",
"56",
"79",
"87",
"63",
"72",
"88",
"73",
"79",
"99",
"88",
"128",
"122",
"87",
"99",
"99",
"107",
"92",
"102",
"124",
"107",
"95",
"96",
"94",
"83",
"92",
"101",
"110",
"111",
"109",
"101",
"106",
"107",
"125",
"143",
"154",
"115",
"105",
"96",
"86",
"102",
"107",
"136",
"150",
"147",
"97",
"95",
"101",
"101",
"129",
"79",
"105",
"117",
"98",
"127",
"112",
"114",
"113",
"126",
"124",
"105",
"115",
"92",
"104",
"105",
"101",
"80",
"84",
"113",
"110",
"96",
"110",
"99",
"151",
"125",
"133",
"265",
"1053",
"4284",
"10382",
"13552",
"9353",
"3555",
"859",
"209",
"124",
"99",
"92",
"115",
"107",
"94",
"121",
"117",
"99",
"131",
"202",
"575",
"1381",
"1822",
"1726",
"1004",
"422",
"165",
"113",
"84",
"70",
"72",
"76",
"71",
"73",
"68",
"80",
"67",
"60",
"69",
"63",
"67",
"82",
"68",
"73",
"68",
"72",
"76",
"71",
"58",
"59",
"76",
"69",
"74",
"66",
"57",
"71",
"60",
"56",
"49",
"51",
"56",
"68",
"51",
"66",
"57",
"49",
"61",
"61",
"64",
"57",
"53",
"61",
"55",
"68",
"74",
"61",
"65",
"46",
"60",
"67",
"41",
"60",
"50",
"52",
"60",
"49",
"57",
"46",
"46",
"51",
"60",
"54",
"49",
"58",
"44",
"52",
"58",
"41",
"42",
"57",
"67",
"55",
"66",
"68",
"81",
"57",
"50",
"74",
"77",
"73",
"85",
"124",
"140",
"164",
"207",
"258",
"332",
"331",
"334",
"330",
"307",
"248",
"195",
"174",
"121",
"97",
"74",
"91",
"104",
"158",
"196",
"209",
"207",
"131",
"60",
"51",
"55",
"82664",
"Channel_info_start",
"Channel : Mg",
"Points : 0",
"Range : 0.000000 - 0.000000",
"Step : 0.010000",
"Channel_info_end",
"Channel_info_start",
"Channel : Al",
"Points : 0",
"Range : 0.000000 - 0.000000",
"Step : 0.010000",
"Channel_info_end",
"Channel_info_start",
"Channel : Si",
"Points : 0",
"Range : 0.000000 - 0.000000",
"Step : 0.010000",
"Channel_info_end",
"Channel_info_start",
"Channel : P ",
"Points : 0",
"Range : 0.000000 - 0.000000",
"Step : 0.010000",
"Channel_info_end",
"Channel_info_start",
"Channel : S ",
"Points : 0",
"Range : 0.000000 - 0.000000",
"Step : 0.010000",
"Channel_info_end",
"Channel_info_start",
"Channel : Cl",
"Points : 0",
"Range : 0.000000 - 0.000000",
"Step : 0.010000",
"Channel_info_end",
"Channel_info_start",
"Channel : K ",
"Points : 0",
"Range : 0.000000 - 0.000000",
"Step : 0.010000",
"Channel_info_end",
"Channel_info_start",
"Channel : Ca",
"Points : 0",
"Range : 0.000000 - 0.000000",
"Step : 0.010000",
"Channel_info_end",
"Channel_info_start",
"Channel : Ti",
"Points : 0",
"Range : 0.000000 - 0.000000",
"Step : 0.010000",
"Channel_info_end",
"Channel_info_start",
"Channel : V ",
"Points : 0",
"Range : 0.000000 - 0.000000",
"Step : 0.010000",
"Channel_info_end",
"Channel_info_start",
"Channel : Cr",
"Points : 0",
"Range : 0.000000 - 0.000000",
"Step : 0.010000",
"Channel_info_end",
"Channel_info_start",
"Channel : Mn",
"Points : 0",
"Range : 0.000000 - 0.000000",
"Step : 0.010000",
"Channel_info_end",
"Channel_info_start",
"Channel : Fe",
"Points : 0",
"Range : 0.000000 - 0.000000",
"Step : 0.010000",
"Channel_info_end",
"Channel_info_start",
"Channel : Cu",
"Points : 0",
"Range : 0.000000 - 0.000000",
"Step : 0.010000",
"Channel_info_end",
"Channel_info_start",
"Channel : Zn",
"Points : 0",
"Range : 0.000000 - 0.000000",
"Step : 0.010000",
"Channel_info_end",
"Channel_info_start",
"Channel : Sr",
"Points : 0",
"Range : 0.000000 - 0.000000",
"Step : 0.010000",
"Channel_info_end",
"Channel_info_start",
"Channel : Pb",
"Points : 0",
"Range : 0.000000 - 0.000000",
"Step : 0.010000",
"Channel_info_end",
"",
"Qualitative Result",
"--------------------------------------------------------------------------------",
"Element :  Mg, Se, Cd, Ca, Ru",
"",
"Peak List",
"--------------------------------------------------------------------------------",
"Channel               Line        keV     Net Int.(cps/uA)",
"--------------------------------------------------------------------------------",
"Na                    MgKa         1.20     0.006",
"                      SeLa         1.40     0.210",
"                      CdLL         2.76     0.044",
"                      CdLa         3.13     1.199",
"                      CdLb1        3.32     0.611",
"                      CdLb2        3.52     0.123",
"                      CdLg1        3.68     0.060",
"                      CaKa         3.68     0.128",
"                      CdLg2        3.96     0.029",
"                      SeKa        11.20     5.973",
"                      SeKb        12.48     0.883",
"                      RuKa        19.20     0.141",
"                      ----        19.48     0.049",
"                      ----        20.02     0.066",
"--------------------------------------------------------------------------------",
"",
"Quantitative Result",
"--------------------------------------------------------------------------------",
"Analyte               Result             Std.Dev. Proc.-Calc. Line Intensity(cps/uA)",
"--------------------------------------------------------------------------------",
"====[No. 1 Layer]====< Layer1               >===============================",
"Layer1                   2.065 ug/cm2    -------- Flux       -------- --------",
"Mg                       2.065 ug/cm2    -------- ********** -------- --------",