File: inputs/edxCalibration/edx_raw/2010-06/Cr 15756.20100610233955.csv
"Sample    : Cr 15756",
"Operator  : thiago",
"Comment  : cubatao-g-policarbonato",
"Group     : kerr2007ag180cal_lt",
"Date       : 2010-06-10 23:33:54",
"",
"Mesurement Condition",
"------------------------------------------------------------------------------------",
"Instrument : 700HS2   Atmosphere : Vac.   Collimator : 10(mm)   Spin : No",
"------------------------------------------------------------------------------------",
"Analyte               TG kV   uA      FI Acq.(keV)  Anal.(keV)  Time(sec)     DT(%)",
"------------------------------------------------------------------------------------",
"Na                    Rh 50  210-Auto Al  0 - 20    0.8 - 1.2   Live -  179   14",
"",
"<Profile>",
"Channel_info_start",
"Channel : Na",
"Points : 2048",
"Range : 0.000000 - 20.48",
"Step : 0.010000",
"Channel_info_end",
"0",
"0",
"0",
"0",
"0",
"10",
"14",
"10",
"11",
"17",
"14",
"15",
"12",
"12",
"11",
"12",
"5",
"15",
"14",
"14",
"19",
"14",
"14",
"13",
"18",
"30",
"18",
"13",
"44",
"41",
"22",
"18",
"26",
"22",
"17",
"12",
"13",
"17",
"21",
"18",
"16",
"22",
"22",
"16",
"19",
"12",
"18",
"30",
"28",
"22",
"30",
"146",
"500",
"642",
"167",
"51",
"54",
"83",
"62",
"54",
"66",
"57",
"40",
"70",
"79",
"66",
"93",
"78",
"79",
"69",
"76",
"110",
"121",
"161",
"226",
"1411",
"12057",
"32030",
"22785",
"5091",
"389",
"141",
"180",
"744",
"2768",
"4261",
"1972",
"395",
"56",
"64",
"65",
"63",
"54",
"78",
"77",
"74",
"86",
"71",
"64",
"65",
"74",
"67",
"52",
"75",
"64",
"74",
"61",
"74",
"62",
"77",
"66",
"64",
"82",
"89",
"86",
"95",
"69",
"73",
"68",
"74",
"68",
"106",
"97",
"116",
"109",
"93",
"73",
"77",
"75",
"70",
"56",
"69",
"83",
"66",
"73",
"86",
"65",
"71",
"65",
"73",
"74",
"68",
"76",
"84",
"74",
"71",
"73",
"62",
"68",
"80",
"74",
"61",
"49",
"83",
"95",
"126",
"64",
"93",
"52",
"64",
"57",
"89",
"78",
"71",
"66",
"64",
"65",
"71",
"57",
"55",
"57",
"54",
"60",
"56",
"60",
"58",
"62",
"70",
"62",
"62",
"69",
"67",
"64",
"54",
"57",
"60",
"50",
"71",
"69",
"65",
"75",
"69",
"61",
"57",
"67",
"60",
"54",
"70",
"51",
"67",
"58",
"64",
"48",
"57",
"55",
"49",
"53",
"56",
"51",
"51",
"54",
"45",
"44",
"41",
"54",
"55",
"57",
"45",
"54",
"50",
"38",
"51",
"48",
"54",
"45",
"51",
"44",
"54",
"50",
"34",
"37",
"47",
"55",
"38",
"49",
"55",
"48",
"44",
"36",
"58",
"44",
"49",
"41",
"48",
"40",
"40",
"38",
"42",
"44",
"41",
"43",
"43",
"55",
"49",
"47",
"48",
"43",
"54",
"49",
"42",
"56",
"52",
"63",
"43",
"57",
"54",
"65",
"104",
"107",
"143",
"174",
"223",
"253",
"287",
"336",
"339",
"264",
"221",
"142",
"136",
"131",
"79",
"66",
"84",
"81",
"114",
"169",
"151",
"116",
"74",
"65",
"41",
"39",
"20785",
"Channel_info_start",
"Channel : Mg",
"Points : 0",
"Range : 0.000000 - 0.000000",
"Step : 0.010000",
"Channel_info_end",
"Channel_info_start",
"Channel : Al",
"Points : 0",
"Range : 0.000000 - 0.000000",
"Step : 0.010000",
"Channel_info_end",
"Channel_info_start",
"Channel : Si",
"Points : 0",
"Range : 0.000000 - 0.000000",
"Step : 0.010000",
"Channel_info_end",
"Channel_info_start",
"Channel : P ",
"Points : 0",
"Range : 0.000000 - 0.000000",
"Step : 0.010000",
"Channel_info_end",
"Channel_info_start",
"Channel : S ",
"Points : 0",
"Range : 0.000000 - 0.000000",
"Step : 0.010000",
"Channel_info_end",
"Channel_info_start",
"Channel : Cl",
"Points : 0",
"Range : 0.000000 - 0.000000",
"Step : 0.010000",
"Channel_info_end",
"Channel_info_start",
"Channel : K ",
"Points : 0",
"Range : 0.000000 - 0.000000",
"Step : 0.010000",
"Channel_info_end",
"Channel_info_start",
"Channel : Ca",
"Points : 0",
"Range : 0.000000 - 0.000000",
"Step : 0.010000",
"Channel_info_end",
"Channel_info_start",
"Channel : Ti",
"Points : 0",
"Range : 0.000000 - 0.000000",
"Step : 0.010000",
"Channel_info_end",
"Channel_info_start",
"Channel : V ",
"Points : 0",
"Range : 0.000000 - 0.000000",
"Step : 0.010000",
"Channel_info_end",
"Channel_info_start",
"Channel : Cr",
"Points : 0",
"Range : 0.000000 - 0.000000",
"Step : 0.010000",
"Channel_info_end",
"Channel_info_start",
"Channel : Mn",
"Points : 0",
"Range : 0.000000 - 0.000000",
"Step : 0.010000",
"Channel_info_end",
"Channel_info_start",
"Channel : Fe",
"Points : 0",
"Range : 0.000000 - 0.000000",
"Step : 0.010000",
"Channel_info_end",
"Channel_info_start",
"Channel : Cu",
"Points : 0",
"Range : 0.000000 - 0.000000",
"Step : 0.010000",
"Channel_info_end",
"Channel_info_start",
"Channel : Zn",
"Points : 0",
"Range : 0.000000 - 0.000000",
"Step : 0.010000",
"Channel_info_end",
"Channel_info_start",
"Channel : Sr",
"Points : 0",
"Range : 0.000000 - 0.000000",
"Step : 0.010000",
"Channel_info_end",
"Channel_info_start",
"Channel : Pb",
"Points : 0",
"Range : 0.000000 - 0.000000",
"Step : 0.010000",
"Channel_info_end",
"",
"Qualitative Result",
"--------------------------------------------------------------------------------",
"Element :  P , Ca, Cr, Ru",
"",
"Peak List",
"--------------------------------------------------------------------------------",
"Channel               Line        keV     Net Int.(cps/uA)",
"--------------------------------------------------------------------------------",
"Na                    P Ka         2.01     0.016",
"                      CaKa         3.68     0.244",
"                      CaKb         4.03     0.017",
"                      CrKa         5.40    13.510",
"                      CrKb         5.94     1.717",
"                      RuKa        19.21     0.152",
"                      ----        20.02     0.065",
"--------------------------------------------------------------------------------",
"",
"Quantitative Result",
"--------------------------------------------------------------------------------",
"Analyte               Result             Std.Dev. Proc.-Calc. Line Intensity(cps/uA)",
"--------------------------------------------------------------------------------",
"====[No. 1 Layer]====< Layer1               >===============================",
"Layer1                   0.000 ug/cm2    -------- Flux       -------- --------",