File: inputs/edxCalibration/edx_raw/2010-06/CsBr 15760.20100525225714.csv
"Sample    : CsBr 15760",
"Operator  : luisf",
"Comment  : cubatao-g-policarbonato",
"Group     : kerr2007ag180cal_lt",
"Date       : 2010-05-25 22:53:11",
"",
"Mesurement Condition",
"------------------------------------------------------------------------------------",
"Instrument : 700HS2   Atmosphere : Vac.   Collimator : 10(mm)   Spin : No",
"------------------------------------------------------------------------------------",
"Analyte               TG kV   uA      FI Acq.(keV)  Anal.(keV)  Time(sec)     DT(%)",
"------------------------------------------------------------------------------------",
"Na                    Rh 50  237-Auto Al  0 - 20    0.8 - 1.2   Live -  180   14",
"",
"<Profile>",
"Channel_info_start",
"Channel : Na",
"Points : 2048",
"Range : 0.000000 - 20.48",
"Step : 0.010000",
"Channel_info_end",
"0",
"0",
"0",
"0",
"1",
"33",
"27",
"38",
"20",
"23",
"31",
"21",
"24",
"30",
"35",
"14",
"23",
"25",
"39",
"62",
"114",
"566",
"463",
"153",
"49",
"39",
"24",
"27",
"48",
"52",
"36",
"25",
"24",
"47",
"28",
"40",
"73",
"56",
"28",
"36",
"42",
"63",
"59",
"42",
"20",
"29",
"29",
"29",
"33",
"39",
"47",
"113",
"395",
"660",
"426",
"272",
"114",
"150",
"171",
"442",
"2465",
"6844",
"4400",
"787",
"359",
"2068",
"4402",
"3309",
"1330",
"520",
"1015",
"968",
"372",
"128",
"212",
"541",
"533",
"184",
"211",
"388",
"283",
"137",
"70",
"73",
"68",
"69",
"60",
"69",
"78",
"106",
"100",
"102",
"107",
"99",
"90",
"109",
"111",
"113",
"112",
"127",
"95",
"81",
"106",
"113",
"91",
"96",
"77",
"124",
"101",
"105",
"78",
"98",
"100",
"98",
"127",
"131",
"117",
"116",
"104",
"93",
"130",
"118",
"150",
"171",
"118",
"124",
"89",
"132",
"115",
"91",
"107",
"124",
"100",
"126",
"105",
"112",
"103",
"122",
"103",
"89",
"80",
"108",
"96",
"96",
"109",
"105",
"125",
"119",
"105",
"101",
"106",
"108",
"100",
"120",
"103",
"86",
"122",
"94",
"113",
"111",
"115",
"102",
"90",
"112",
"115",
"143",
"257",
"1121",
"3982",
"8864",
"11049",
"8870",
"3450",
"916",
"201",
"118",
"109",
"94",
"81",
"98",
"112",
"88",
"87",
"109",
"120",
"127",
"175",
"365",
"863",
"1574",
"1762",
"1265",
"675",
"292",
"150",
"106",
"79",
"83",
"76",
"87",
"77",
"63",
"68",
"79",
"75",
"61",
"81",
"56",
"73",
"63",
"54",
"63",
"64",
"67",
"89",
"85",
"74",
"66",
"69",
"61",
"76",
"76",
"72",
"66",
"60",
"63",
"77",
"69",
"63",
"69",
"62",
"63",
"74",
"80",
"67",
"61",
"61",
"63",
"60",
"68",
"57",
"52",
"47",
"61",
"72",
"61",
"59",
"78",
"70",
"65",
"60",
"55",
"62",
"56",
"59",
"54",
"64",
"55",
"50",
"67",
"60",
"79",
"78",
"86",
"66",
"80",
"89",
"82",
"126",
"145",
"205",
"258",
"351",
"383",
"365",
"370",
"326",
"257",
"197",
"144",
"131",
"89",
"89",
"91",
"131",
"166",
"198",
"232",
"202",
"128",
"83",
"62",
"59",
"37718",
"Channel_info_start",
"Channel : Mg",
"Points : 0",
"Range : 0.000000 - 0.000000",
"Step : 0.010000",
"Channel_info_end",
"Channel_info_start",
"Channel : Al",
"Points : 0",
"Range : 0.000000 - 0.000000",
"Step : 0.010000",
"Channel_info_end",
"Channel_info_start",
"Channel : Si",
"Points : 0",
"Range : 0.000000 - 0.000000",
"Step : 0.010000",
"Channel_info_end",
"Channel_info_start",
"Channel : P ",
"Points : 0",
"Range : 0.000000 - 0.000000",
"Step : 0.010000",
"Channel_info_end",
"Channel_info_start",
"Channel : S ",
"Points : 0",
"Range : 0.000000 - 0.000000",
"Step : 0.010000",
"Channel_info_end",
"Channel_info_start",
"Channel : Cl",
"Points : 0",
"Range : 0.000000 - 0.000000",
"Step : 0.010000",
"Channel_info_end",
"Channel_info_start",
"Channel : K ",
"Points : 0",
"Range : 0.000000 - 0.000000",
"Step : 0.010000",
"Channel_info_end",
"Channel_info_start",
"Channel : Ca",
"Points : 0",
"Range : 0.000000 - 0.000000",
"Step : 0.010000",
"Channel_info_end",
"Channel_info_start",
"Channel : Ti",
"Points : 0",
"Range : 0.000000 - 0.000000",
"Step : 0.010000",
"Channel_info_end",
"Channel_info_start",
"Channel : V ",
"Points : 0",
"Range : 0.000000 - 0.000000",
"Step : 0.010000",
"Channel_info_end",
"Channel_info_start",
"Channel : Cr",
"Points : 0",
"Range : 0.000000 - 0.000000",
"Step : 0.010000",
"Channel_info_end",
"Channel_info_start",
"Channel : Mn",
"Points : 0",
"Range : 0.000000 - 0.000000",
"Step : 0.010000",
"Channel_info_end",
"Channel_info_start",
"Channel : Fe",
"Points : 0",
"Range : 0.000000 - 0.000000",
"Step : 0.010000",
"Channel_info_end",
"Channel_info_start",
"Channel : Cu",
"Points : 0",
"Range : 0.000000 - 0.000000",
"Step : 0.010000",
"Channel_info_end",
"Channel_info_start",
"Channel : Zn",
"Points : 0",
"Range : 0.000000 - 0.000000",
"Step : 0.010000",
"Channel_info_end",
"Channel_info_start",
"Channel : Sr",
"Points : 0",
"Range : 0.000000 - 0.000000",
"Step : 0.010000",
"Channel_info_end",
"Channel_info_start",
"Channel : Pb",
"Points : 0",
"Range : 0.000000 - 0.000000",
"Step : 0.010000",
"Channel_info_end",
"",
"Qualitative Result",
"--------------------------------------------------------------------------------",
"Element :  Br, P , Cs, Ce",
"",
"Peak List",
"--------------------------------------------------------------------------------",
"Channel               Line        keV     Net Int.(cps/uA)",
"--------------------------------------------------------------------------------",
"Na                    BrLa         1.50     0.155",
"                      P Ka         2.00     0.014",
"                      CsLaESC      2.52     0.017",
"                      ----         3.70     0.183",
"                      CsLa         4.28     2.329",
"                      CsLb1        4.63     1.487",
"                      CsLb2        4.94     0.355",
"                      CsLg1        5.28     0.140",
"                      CeLb1        5.28     0.036",
"                      CsLg2        5.54     0.099",
"                      BrKa        11.88     5.174",
"                      BrKb        13.29     0.770",
"                      ----        19.24     0.138",
"                      ----        19.97     0.062",
"--------------------------------------------------------------------------------",
"",
"Quantitative Result",
"--------------------------------------------------------------------------------",
"Analyte               Result             Std.Dev. Proc.-Calc. Line Intensity(cps/uA)",
"--------------------------------------------------------------------------------",
"====[No. 1 Layer]====< Layer1               >===============================",
"Layer1                   0.000 ug/cm2    -------- Flux       -------- --------",