File: inputs/edxCalibration/edx_raw/2010-06/CsBr 31512.20100525230517.csv
"Sample    : CsBr 31512",
"Operator  : luisf",
"Comment  : cubatao-g-policarbonato",
"Group     : kerr2007ag180cal_lt",
"Date       : 2010-05-25 23:01:13",
"",
"Mesurement Condition",
"------------------------------------------------------------------------------------",
"Instrument : 700HS2   Atmosphere : Vac.   Collimator : 10(mm)   Spin : No",
"------------------------------------------------------------------------------------",
"Analyte               TG kV   uA      FI Acq.(keV)  Anal.(keV)  Time(sec)     DT(%)",
"------------------------------------------------------------------------------------",
"Na                    Rh 50  237-Auto Al  0 - 20    0.8 - 1.2   Live -  179   15",
"",
"<Profile>",
"Channel_info_start",
"Channel : Na",
"Points : 2048",
"Range : 0.000000 - 20.48",
"Step : 0.010000",
"Channel_info_end",
"0",
"0",
"0",
"0",
"0",
"26",
"36",
"25",
"24",
"23",
"29",
"22",
"28",
"30",
"28",
"29",
"27",
"28",
"38",
"52",
"120",
"594",
"490",
"159",
"40",
"22",
"28",
"26",
"61",
"86",
"50",
"23",
"26",
"27",
"23",
"25",
"57",
"65",
"33",
"34",
"44",
"57",
"38",
"36",
"36",
"35",
"30",
"35",
"22",
"34",
"51",
"163",
"646",
"993",
"516",
"305",
"143",
"189",
"189",
"392",
"2283",
"6611",
"4165",
"814",
"343",
"2050",
"4254",
"3135",
"1151",
"508",
"913",
"1023",
"357",
"142",
"206",
"553",
"514",
"204",
"219",
"405",
"257",
"123",
"88",
"66",
"48",
"76",
"59",
"73",
"79",
"95",
"79",
"100",
"102",
"89",
"94",
"97",
"121",
"125",
"112",
"107",
"125",
"114",
"91",
"87",
"71",
"86",
"98",
"118",
"101",
"82",
"90",
"127",
"93",
"107",
"92",
"116",
"95",
"112",
"110",
"106",
"102",
"110",
"124",
"179",
"162",
"107",
"90",
"102",
"105",
"105",
"103",
"103",
"130",
"114",
"80",
"112",
"113",
"104",
"93",
"90",
"93",
"112",
"99",
"101",
"100",
"104",
"91",
"111",
"93",
"80",
"91",
"115",
"137",
"110",
"108",
"99",
"105",
"105",
"100",
"98",
"107",
"105",
"92",
"110",
"124",
"123",
"247",
"1098",
"4099",
"9302",
"11657",
"9151",
"3830",
"1021",
"218",
"105",
"80",
"81",
"103",
"112",
"84",
"98",
"94",
"99",
"99",
"95",
"165",
"369",
"927",
"1678",
"1758",
"1310",
"683",
"335",
"153",
"111",
"67",
"62",
"68",
"57",
"81",
"72",
"76",
"53",
"72",
"49",
"68",
"60",
"69",
"77",
"75",
"72",
"69",
"81",
"71",
"68",
"72",
"66",
"79",
"55",
"55",
"80",
"57",
"75",
"56",
"62",
"53",
"61",
"73",
"59",
"48",
"61",
"48",
"59",
"47",
"73",
"65",
"60",
"68",
"53",
"71",
"56",
"49",
"57",
"47",
"59",
"66",
"48",
"50",
"61",
"56",
"51",
"50",
"59",
"43",
"50",
"66",
"61",
"53",
"65",
"53",
"71",
"67",
"66",
"59",
"75",
"92",
"100",
"135",
"154",
"176",
"239",
"298",
"332",
"329",
"332",
"319",
"255",
"199",
"187",
"119",
"85",
"91",
"110",
"138",
"175",
"194",
"258",
"191",
"138",
"77",
"48",
"56",
"35720",
"Channel_info_start",
"Channel : Mg",
"Points : 0",
"Range : 0.000000 - 0.000000",
"Step : 0.010000",
"Channel_info_end",
"Channel_info_start",
"Channel : Al",
"Points : 0",
"Range : 0.000000 - 0.000000",
"Step : 0.010000",
"Channel_info_end",
"Channel_info_start",
"Channel : Si",
"Points : 0",
"Range : 0.000000 - 0.000000",
"Step : 0.010000",
"Channel_info_end",
"Channel_info_start",
"Channel : P ",
"Points : 0",
"Range : 0.000000 - 0.000000",
"Step : 0.010000",
"Channel_info_end",
"Channel_info_start",
"Channel : S ",
"Points : 0",
"Range : 0.000000 - 0.000000",
"Step : 0.010000",
"Channel_info_end",
"Channel_info_start",
"Channel : Cl",
"Points : 0",
"Range : 0.000000 - 0.000000",
"Step : 0.010000",
"Channel_info_end",
"Channel_info_start",
"Channel : K ",
"Points : 0",
"Range : 0.000000 - 0.000000",
"Step : 0.010000",
"Channel_info_end",
"Channel_info_start",
"Channel : Ca",
"Points : 0",
"Range : 0.000000 - 0.000000",
"Step : 0.010000",
"Channel_info_end",
"Channel_info_start",
"Channel : Ti",
"Points : 0",
"Range : 0.000000 - 0.000000",
"Step : 0.010000",
"Channel_info_end",
"Channel_info_start",
"Channel : V ",
"Points : 0",
"Range : 0.000000 - 0.000000",
"Step : 0.010000",
"Channel_info_end",
"Channel_info_start",
"Channel : Cr",
"Points : 0",
"Range : 0.000000 - 0.000000",
"Step : 0.010000",
"Channel_info_end",
"Channel_info_start",
"Channel : Mn",
"Points : 0",
"Range : 0.000000 - 0.000000",
"Step : 0.010000",
"Channel_info_end",
"Channel_info_start",
"Channel : Fe",
"Points : 0",
"Range : 0.000000 - 0.000000",
"Step : 0.010000",
"Channel_info_end",
"Channel_info_start",
"Channel : Cu",
"Points : 0",
"Range : 0.000000 - 0.000000",
"Step : 0.010000",
"Channel_info_end",
"Channel_info_start",
"Channel : Zn",
"Points : 0",
"Range : 0.000000 - 0.000000",
"Step : 0.010000",
"Channel_info_end",
"Channel_info_start",
"Channel : Sr",
"Points : 0",
"Range : 0.000000 - 0.000000",
"Step : 0.010000",
"Channel_info_end",
"Channel_info_start",
"Channel : Pb",
"Points : 0",
"Range : 0.000000 - 0.000000",
"Step : 0.010000",
"Channel_info_end",
"",
"Qualitative Result",
"--------------------------------------------------------------------------------",
"Element :  Br, P , Cs, Ce, Ru",
"",
"Peak List",
"--------------------------------------------------------------------------------",
"Channel               Line        keV     Net Int.(cps/uA)",
"--------------------------------------------------------------------------------",
"Na                    BrLa         1.50     0.174",
"                      P Ka         1.99     0.020",
"                      CsLaESC      2.56     0.016",
"                      ----         3.70     0.295",
"                      CsLa         4.28     2.272",
"                      CsLb1        4.63     1.453",
"                      CsLb2        4.94     0.327",
"                      CsLg1        5.28     0.136",
"                      CeLb1        5.28     0.035",
"                      CsLg2        5.55     0.096",
"                      BrKa        11.90     5.370",
"                      BrKb        13.28     0.838",
"                      RuKa        19.24     0.138",
"                      ----        20.00     0.078",
"--------------------------------------------------------------------------------",
"",
"Quantitative Result",
"--------------------------------------------------------------------------------",
"Analyte               Result             Std.Dev. Proc.-Calc. Line Intensity(cps/uA)",
"--------------------------------------------------------------------------------",
"====[No. 1 Layer]====< Layer1               >===============================",
"Layer1                   0.000 ug/cm2    -------- Flux       -------- --------",