File: inputs/edxCalibration/edx_raw/2010-06/CsBr 15760.20100611013025.csv
"Sample    : CsBr 15760",
"Operator  : Luís",
"Comment  : cubatao-g-policarbonato",
"Group     : kerr2007ag180cal_lt",
"Date       : 2010-06-11 01:26:23",
"",
"Mesurement Condition",
"------------------------------------------------------------------------------------",
"Instrument : 700HS2   Atmosphere : Vac.   Collimator : 10(mm)   Spin : No",
"------------------------------------------------------------------------------------",
"Analyte               TG kV   uA      FI Acq.(keV)  Anal.(keV)  Time(sec)     DT(%)",
"------------------------------------------------------------------------------------",
"Na                    Rh 50  152-Auto Al  0 - 20    0.8 - 1.2   Live -  180   14",
"",
"<Profile>",
"Channel_info_start",
"Channel : Na",
"Points : 2048",
"Range : 0.000000 - 20.48",
"Step : 0.010000",
"Channel_info_end",
"0",
"0",
"0",
"0",
"0",
"14",
"25",
"15",
"13",
"25",
"14",
"12",
"11",
"12",
"10",
"12",
"16",
"74",
"93",
"558",
"1291",
"593",
"84",
"17",
"15",
"18",
"13",
"22",
"31",
"42",
"17",
"16",
"10",
"10",
"10",
"22",
"4",
"10",
"21",
"9",
"10",
"17",
"9",
"6",
"3",
"10",
"6",
"6",
"10",
"11",
"17",
"81",
"414",
"591",
"146",
"31",
"47",
"96",
"62",
"19",
"19",
"19",
"25",
"27",
"37",
"40",
"34",
"37",
"29",
"24",
"25",
"27",
"22",
"36",
"14",
"31",
"26",
"35",
"29",
"45",
"27",
"34",
"36",
"43",
"38",
"39",
"31",
"36",
"54",
"61",
"65",
"53",
"75",
"53",
"58",
"60",
"66",
"57",
"55",
"54",
"71",
"80",
"69",
"53",
"52",
"69",
"52",
"69",
"65",
"69",
"55",
"63",
"53",
"68",
"88",
"104",
"87",
"70",
"67",
"75",
"55",
"74",
"101",
"113",
"111",
"89",
"74",
"66",
"83",
"64",
"53",
"65",
"74",
"61",
"65",
"90",
"89",
"76",
"67",
"55",
"66",
"64",
"53",
"70",
"50",
"58",
"68",
"68",
"70",
"65",
"80",
"89",
"84",
"89",
"120",
"121",
"315",
"1717",
"7178",
"17834",
"22974",
"15948",
"5852",
"1307",
"198",
"89",
"108",
"74",
"89",
"63",
"61",
"100",
"95",
"101",
"115",
"281",
"895",
"2109",
"3107",
"3032",
"1638",
"657",
"221",
"96",
"54",
"56",
"63",
"34",
"50",
"44",
"41",
"44",
"53",
"41",
"40",
"40",
"53",
"66",
"48",
"47",
"50",
"49",
"37",
"41",
"32",
"34",
"43",
"41",
"53",
"39",
"44",
"43",
"39",
"35",
"42",
"40",
"44",
"41",
"45",
"28",
"41",
"32",
"40",
"42",
"41",
"43",
"22",
"55",
"40",
"31",
"38",
"34",
"32",
"40",
"25",
"26",
"34",
"29",
"36",
"38",
"42",
"49",
"27",
"32",
"28",
"47",
"36",
"34",
"29",
"48",
"30",
"29",
"22",
"29",
"41",
"32",
"43",
"39",
"44",
"35",
"48",
"31",
"37",
"40",
"42",
"57",
"42",
"63",
"64",
"85",
"120",
"183",
"212",
"222",
"224",
"238",
"195",
"174",
"147",
"87",
"78",
"57",
"58",
"39",
"66",
"75",
"104",
"141",
"106",
"68",
"44",
"31",
"23",
"17539",
"Channel_info_start",
"Channel : Mg",
"Points : 0",
"Range : 0.000000 - 0.000000",
"Step : 0.010000",
"Channel_info_end",
"Channel_info_start",
"Channel : Al",
"Points : 0",
"Range : 0.000000 - 0.000000",
"Step : 0.010000",
"Channel_info_end",
"Channel_info_start",
"Channel : Si",
"Points : 0",
"Range : 0.000000 - 0.000000",
"Step : 0.010000",
"Channel_info_end",
"Channel_info_start",
"Channel : P ",
"Points : 0",
"Range : 0.000000 - 0.000000",
"Step : 0.010000",
"Channel_info_end",
"Channel_info_start",
"Channel : S ",
"Points : 0",
"Range : 0.000000 - 0.000000",
"Step : 0.010000",
"Channel_info_end",
"Channel_info_start",
"Channel : Cl",
"Points : 0",
"Range : 0.000000 - 0.000000",
"Step : 0.010000",
"Channel_info_end",
"Channel_info_start",
"Channel : K ",
"Points : 0",
"Range : 0.000000 - 0.000000",
"Step : 0.010000",
"Channel_info_end",
"Channel_info_start",
"Channel : Ca",
"Points : 0",
"Range : 0.000000 - 0.000000",
"Step : 0.010000",
"Channel_info_end",
"Channel_info_start",
"Channel : Ti",
"Points : 0",
"Range : 0.000000 - 0.000000",
"Step : 0.010000",
"Channel_info_end",
"Channel_info_start",
"Channel : V ",
"Points : 0",
"Range : 0.000000 - 0.000000",
"Step : 0.010000",
"Channel_info_end",
"Channel_info_start",
"Channel : Cr",
"Points : 0",
"Range : 0.000000 - 0.000000",
"Step : 0.010000",
"Channel_info_end",
"Channel_info_start",
"Channel : Mn",
"Points : 0",
"Range : 0.000000 - 0.000000",
"Step : 0.010000",
"Channel_info_end",
"Channel_info_start",
"Channel : Fe",
"Points : 0",
"Range : 0.000000 - 0.000000",
"Step : 0.010000",
"Channel_info_end",
"Channel_info_start",
"Channel : Cu",
"Points : 0",
"Range : 0.000000 - 0.000000",
"Step : 0.010000",
"Channel_info_end",
"Channel_info_start",
"Channel : Zn",
"Points : 0",
"Range : 0.000000 - 0.000000",
"Step : 0.010000",
"Channel_info_end",
"Channel_info_start",
"Channel : Sr",
"Points : 0",
"Range : 0.000000 - 0.000000",
"Step : 0.010000",
"Channel_info_end",
"Channel_info_start",
"Channel : Pb",
"Points : 0",
"Range : 0.000000 - 0.000000",
"Step : 0.010000",
"Channel_info_end",
"",
"Qualitative Result",
"--------------------------------------------------------------------------------",
"Element :  Mg, Se, P , Ca, Rh",
"",
"Peak List",
"--------------------------------------------------------------------------------",
"Channel               Line        keV     Net Int.(cps/uA)",
"--------------------------------------------------------------------------------",
"Na                    MgKa         1.20     0.016",
"                      SeLa         1.40     0.540",
"                      P Ka         1.98     0.020",
"                      CaKa         3.70     0.301",
"                      CaKb         4.00     0.036",
"                      SeKa        11.20    15.963",
"                      SeKb        12.48     2.486",
"                      RhKaC       19.20     0.138",
"                      RhKa        20.09     0.084",
"--------------------------------------------------------------------------------",
"",
"Quantitative Result",
"--------------------------------------------------------------------------------",
"Analyte               Result             Std.Dev. Proc.-Calc. Line Intensity(cps/uA)",
"--------------------------------------------------------------------------------",
"====[No. 1 Layer]====< Layer1               >===============================",
"Layer1                   5.180 ug/cm2    -------- Flux       -------- --------",
"Mg                       5.180 ug/cm2    -------- ********** -------- --------",