File: inputs/edxCalibration/edx_raw/2010-06/CsBr 31512.20100611013826.csv
"Sample    : CsBr 31512",
"Operator  : Luís",
"Comment  : cubatao-g-policarbonato",
"Group     : kerr2007ag180cal_lt",
"Date       : 2010-06-11 01:34:24",
"",
"Mesurement Condition",
"------------------------------------------------------------------------------------",
"Instrument : 700HS2   Atmosphere : Vac.   Collimator : 10(mm)   Spin : No",
"------------------------------------------------------------------------------------",
"Analyte               TG kV   uA      FI Acq.(keV)  Anal.(keV)  Time(sec)     DT(%)",
"------------------------------------------------------------------------------------",
"Na                    Rh 50  237-Auto Al  0 - 20    0.8 - 1.2   Live -  180   14",
"",
"<Profile>",
"Channel_info_start",
"Channel : Na",
"Points : 2048",
"Range : 0.000000 - 20.48",
"Step : 0.010000",
"Channel_info_end",
"0",
"0",
"0",
"0",
"0",
"27",
"33",
"29",
"23",
"22",
"30",
"16",
"29",
"25",
"28",
"33",
"23",
"21",
"34",
"61",
"102",
"579",
"513",
"130",
"43",
"28",
"28",
"31",
"65",
"93",
"38",
"24",
"27",
"25",
"33",
"31",
"90",
"65",
"35",
"35",
"38",
"57",
"51",
"25",
"26",
"41",
"31",
"25",
"21",
"46",
"50",
"131",
"642",
"993",
"588",
"257",
"142",
"197",
"177",
"389",
"2292",
"6762",
"4244",
"749",
"324",
"1988",
"4202",
"3060",
"1148",
"515",
"963",
"1020",
"346",
"151",
"206",
"561",
"499",
"208",
"181",
"334",
"255",
"147",
"83",
"59",
"55",
"64",
"86",
"70",
"85",
"83",
"99",
"108",
"103",
"86",
"82",
"102",
"103",
"103",
"114",
"104",
"100",
"92",
"82",
"79",
"82",
"74",
"83",
"103",
"89",
"98",
"85",
"107",
"98",
"122",
"114",
"118",
"108",
"108",
"105",
"107",
"107",
"124",
"152",
"150",
"164",
"106",
"98",
"99",
"105",
"105",
"100",
"103",
"115",
"116",
"104",
"108",
"108",
"85",
"98",
"100",
"85",
"100",
"80",
"105",
"108",
"104",
"88",
"94",
"118",
"112",
"74",
"98",
"103",
"103",
"105",
"101",
"106",
"126",
"90",
"122",
"87",
"105",
"121",
"106",
"107",
"122",
"296",
"1224",
"4277",
"9490",
"11486",
"8726",
"3338",
"851",
"181",
"113",
"82",
"77",
"91",
"98",
"103",
"74",
"102",
"94",
"119",
"122",
"148",
"396",
"1008",
"1627",
"1740",
"1226",
"655",
"294",
"173",
"94",
"74",
"60",
"94",
"64",
"81",
"93",
"69",
"75",
"72",
"65",
"51",
"64",
"72",
"63",
"61",
"73",
"54",
"79",
"62",
"57",
"64",
"70",
"53",
"60",
"67",
"60",
"77",
"62",
"63",
"69",
"41",
"60",
"54",
"66",
"86",
"68",
"61",
"59",
"43",
"57",
"52",
"67",
"65",
"51",
"35",
"63",
"62",
"55",
"61",
"50",
"60",
"60",
"61",
"67",
"47",
"61",
"67",
"55",
"54",
"51",
"69",
"69",
"59",
"59",
"59",
"65",
"56",
"73",
"80",
"80",
"99",
"117",
"126",
"143",
"179",
"261",
"298",
"340",
"368",
"339",
"282",
"247",
"186",
"151",
"124",
"78",
"88",
"88",
"138",
"152",
"200",
"202",
"178",
"119",
"67",
"64",
"53",
"35309",
"Channel_info_start",
"Channel : Mg",
"Points : 0",
"Range : 0.000000 - 0.000000",
"Step : 0.010000",
"Channel_info_end",
"Channel_info_start",
"Channel : Al",
"Points : 0",
"Range : 0.000000 - 0.000000",
"Step : 0.010000",
"Channel_info_end",
"Channel_info_start",
"Channel : Si",
"Points : 0",
"Range : 0.000000 - 0.000000",
"Step : 0.010000",
"Channel_info_end",
"Channel_info_start",
"Channel : P ",
"Points : 0",
"Range : 0.000000 - 0.000000",
"Step : 0.010000",
"Channel_info_end",
"Channel_info_start",
"Channel : S ",
"Points : 0",
"Range : 0.000000 - 0.000000",
"Step : 0.010000",
"Channel_info_end",
"Channel_info_start",
"Channel : Cl",
"Points : 0",
"Range : 0.000000 - 0.000000",
"Step : 0.010000",
"Channel_info_end",
"Channel_info_start",
"Channel : K ",
"Points : 0",
"Range : 0.000000 - 0.000000",
"Step : 0.010000",
"Channel_info_end",
"Channel_info_start",
"Channel : Ca",
"Points : 0",
"Range : 0.000000 - 0.000000",
"Step : 0.010000",
"Channel_info_end",
"Channel_info_start",
"Channel : Ti",
"Points : 0",
"Range : 0.000000 - 0.000000",
"Step : 0.010000",
"Channel_info_end",
"Channel_info_start",
"Channel : V ",
"Points : 0",
"Range : 0.000000 - 0.000000",
"Step : 0.010000",
"Channel_info_end",
"Channel_info_start",
"Channel : Cr",
"Points : 0",
"Range : 0.000000 - 0.000000",
"Step : 0.010000",
"Channel_info_end",
"Channel_info_start",
"Channel : Mn",
"Points : 0",
"Range : 0.000000 - 0.000000",
"Step : 0.010000",
"Channel_info_end",
"Channel_info_start",
"Channel : Fe",
"Points : 0",
"Range : 0.000000 - 0.000000",
"Step : 0.010000",
"Channel_info_end",
"Channel_info_start",
"Channel : Cu",
"Points : 0",
"Range : 0.000000 - 0.000000",
"Step : 0.010000",
"Channel_info_end",
"Channel_info_start",
"Channel : Zn",
"Points : 0",
"Range : 0.000000 - 0.000000",
"Step : 0.010000",
"Channel_info_end",
"Channel_info_start",
"Channel : Sr",
"Points : 0",
"Range : 0.000000 - 0.000000",
"Step : 0.010000",
"Channel_info_end",
"Channel_info_start",
"Channel : Pb",
"Points : 0",
"Range : 0.000000 - 0.000000",
"Step : 0.010000",
"Channel_info_end",
"",
"Qualitative Result",
"--------------------------------------------------------------------------------",
"Element :  Br, P , Cs, Ce",
"",
"Peak List",
"--------------------------------------------------------------------------------",
"Channel               Line        keV     Net Int.(cps/uA)",
"--------------------------------------------------------------------------------",
"Na                    BrLa         1.51     0.171",
"                      P Ka         2.00     0.019",
"                      CsLaESC      2.55     0.015",
"                      ----         3.70     0.295",
"                      CsLa         4.28     2.272",
"                      CsLb1        4.63     1.416",
"                      CsLb2        4.93     0.324",
"                      CsLg1        5.26     0.136",
"                      CeLb1        5.26     0.027",
"                      CsLg2        5.54     0.088",
"                      BrKa        11.88     5.346",
"                      BrKb        13.28     0.839",
"                      ----        19.12     0.132",
"                      ----        19.40     0.076",
"                      ----        19.92     0.047",
"--------------------------------------------------------------------------------",
"",
"Quantitative Result",
"--------------------------------------------------------------------------------",
"Analyte               Result             Std.Dev. Proc.-Calc. Line Intensity(cps/uA)",
"--------------------------------------------------------------------------------",
"====[No. 1 Layer]====< Layer1               >===============================",
"Layer1                   0.000 ug/cm2    -------- Flux       -------- --------",