File: inputs/edxCalibration/edx_raw/2010-06/Cu 31521.20100525220957.csv
"Sample    : Cu 31521",
"Operator  : luisf",
"Comment  : cubatao-g-policarbonato",
"Group     : kerr2007ag180cal_lt",
"Date       : 2010-05-25 22:05:54",
"",
"Mesurement Condition",
"------------------------------------------------------------------------------------",
"Instrument : 700HS2   Atmosphere : Vac.   Collimator : 10(mm)   Spin : No",
"------------------------------------------------------------------------------------",
"Analyte               TG kV   uA      FI Acq.(keV)  Anal.(keV)  Time(sec)     DT(%)",
"------------------------------------------------------------------------------------",
"Na                    Rh 50  152-Auto Al  0 - 20    0.8 - 1.2   Live -  179   15",
"",
"<Profile>",
"Channel_info_start",
"Channel : Na",
"Points : 2048",
"Range : 0.000000 - 20.48",
"Step : 0.010000",
"Channel_info_end",
"0",
"0",
"0",
"0",
"0",
"12",
"14",
"13",
"10",
"11",
"12",
"14",
"37",
"193",
"189",
"46",
"13",
"9",
"8",
"8",
"4",
"11",
"8",
"7",
"12",
"15",
"17",
"17",
"39",
"54",
"25",
"13",
"9",
"16",
"18",
"16",
"10",
"7",
"17",
"12",
"15",
"10",
"9",
"10",
"13",
"8",
"5",
"8",
"12",
"15",
"15",
"87",
"358",
"563",
"188",
"30",
"47",
"84",
"67",
"35",
"13",
"15",
"22",
"28",
"29",
"39",
"17",
"29",
"18",
"27",
"25",
"20",
"33",
"29",
"22",
"25",
"21",
"20",
"23",
"37",
"28",
"40",
"37",
"37",
"49",
"49",
"61",
"55",
"64",
"113",
"134",
"85",
"72",
"63",
"71",
"51",
"62",
"68",
"75",
"87",
"104",
"77",
"77",
"99",
"98",
"87",
"90",
"85",
"89",
"104",
"136",
"199",
"1077",
"7600",
"22820",
"31094",
"15965",
"3440",
"358",
"103",
"93",
"110",
"129",
"162",
"248",
"905",
"2524",
"4135",
"2954",
"998",
"197",
"82",
"60",
"66",
"55",
"61",
"65",
"58",
"51",
"59",
"64",
"59",
"52",
"40",
"46",
"57",
"48",
"55",
"51",
"52",
"41",
"59",
"54",
"57",
"48",
"65",
"47",
"45",
"50",
"62",
"54",
"47",
"41",
"30",
"64",
"48",
"37",
"53",
"49",
"42",
"33",
"53",
"47",
"53",
"62",
"48",
"39",
"52",
"40",
"43",
"40",
"49",
"38",
"61",
"50",
"43",
"49",
"35",
"48",
"42",
"47",
"32",
"39",
"40",
"47",
"33",
"37",
"45",
"40",
"38",
"41",
"42",
"42",
"40",
"39",
"45",
"40",
"41",
"42",
"37",
"35",
"40",
"48",
"43",
"33",
"33",
"43",
"46",
"28",
"37",
"46",
"35",
"39",
"50",
"39",
"33",
"36",
"54",
"58",
"73",
"67",
"76",
"57",
"47",
"35",
"41",
"35",
"36",
"29",
"27",
"36",
"40",
"46",
"41",
"48",
"38",
"35",
"46",
"60",
"75",
"60",
"40",
"38",
"28",
"37",
"25",
"40",
"30",
"35",
"35",
"33",
"27",
"40",
"53",
"40",
"27",
"58",
"61",
"89",
"103",
"128",
"149",
"173",
"202",
"207",
"220",
"204",
"171",
"115",
"111",
"93",
"64",
"58",
"62",
"60",
"92",
"113",
"112",
"104",
"72",
"46",
"41",
"36",
"15573",
"Channel_info_start",
"Channel : Mg",
"Points : 0",
"Range : 0.000000 - 0.000000",
"Step : 0.010000",
"Channel_info_end",
"Channel_info_start",
"Channel : Al",
"Points : 0",
"Range : 0.000000 - 0.000000",
"Step : 0.010000",
"Channel_info_end",
"Channel_info_start",
"Channel : Si",
"Points : 0",
"Range : 0.000000 - 0.000000",
"Step : 0.010000",
"Channel_info_end",
"Channel_info_start",
"Channel : P ",
"Points : 0",
"Range : 0.000000 - 0.000000",
"Step : 0.010000",
"Channel_info_end",
"Channel_info_start",
"Channel : S ",
"Points : 0",
"Range : 0.000000 - 0.000000",
"Step : 0.010000",
"Channel_info_end",
"Channel_info_start",
"Channel : Cl",
"Points : 0",
"Range : 0.000000 - 0.000000",
"Step : 0.010000",
"Channel_info_end",
"Channel_info_start",
"Channel : K ",
"Points : 0",
"Range : 0.000000 - 0.000000",
"Step : 0.010000",
"Channel_info_end",
"Channel_info_start",
"Channel : Ca",
"Points : 0",
"Range : 0.000000 - 0.000000",
"Step : 0.010000",
"Channel_info_end",
"Channel_info_start",
"Channel : Ti",
"Points : 0",
"Range : 0.000000 - 0.000000",
"Step : 0.010000",
"Channel_info_end",
"Channel_info_start",
"Channel : V ",
"Points : 0",
"Range : 0.000000 - 0.000000",
"Step : 0.010000",
"Channel_info_end",
"Channel_info_start",
"Channel : Cr",
"Points : 0",
"Range : 0.000000 - 0.000000",
"Step : 0.010000",
"Channel_info_end",
"Channel_info_start",
"Channel : Mn",
"Points : 0",
"Range : 0.000000 - 0.000000",
"Step : 0.010000",
"Channel_info_end",
"Channel_info_start",
"Channel : Fe",
"Points : 0",
"Range : 0.000000 - 0.000000",
"Step : 0.010000",
"Channel_info_end",
"Channel_info_start",
"Channel : Cu",
"Points : 0",
"Range : 0.000000 - 0.000000",
"Step : 0.010000",
"Channel_info_end",
"Channel_info_start",
"Channel : Zn",
"Points : 0",
"Range : 0.000000 - 0.000000",
"Step : 0.010000",
"Channel_info_end",
"Channel_info_start",
"Channel : Sr",
"Points : 0",
"Range : 0.000000 - 0.000000",
"Step : 0.010000",
"Channel_info_end",
"Channel_info_start",
"Channel : Pb",
"Points : 0",
"Range : 0.000000 - 0.000000",
"Step : 0.010000",
"Channel_info_end",
"",
"Qualitative Result",
"--------------------------------------------------------------------------------",
"Element :  Cu, P , Ca, Ru",
"",
"Peak List",
"--------------------------------------------------------------------------------",
"Channel               Line        keV     Net Int.(cps/uA)",
"--------------------------------------------------------------------------------",
"Na                    CuLa         0.95     0.089",
"                      P Ka         2.02     0.020",
"                      CaKa         3.68     0.302",
"                      CaKb         4.02     0.032",
"                      CuKaESC      6.31     0.048",
"                      CuKa         8.04    19.516",
"                      CuKb         8.89     2.547",
"                      CuKaSUM     16.04     0.044",
"                      ----        19.09     0.132",
"                      RuKa        19.32     0.101",
"--------------------------------------------------------------------------------",
"",
"Quantitative Result",
"--------------------------------------------------------------------------------",
"Analyte               Result             Std.Dev. Proc.-Calc. Line Intensity(cps/uA)",
"--------------------------------------------------------------------------------",
"====[No. 1 Layer]====< Layer1               >===============================",
"Layer1                   0.000 ug/cm2    -------- Flux       -------- --------",