File: inputs/edxCalibration/edx_raw/2010-06/DyF3 31517.20100611035532.csv
"Sample    : DyF3 31517",
"Operator  : Luís",
"Comment  : cubatao-g-policarbonato",
"Group     : kerr2007ag180cal_lt",
"Date       : 2010-06-11 03:49:34",
"",
"Mesurement Condition",
"------------------------------------------------------------------------------------",
"Instrument : 700HS2   Atmosphere : Vac.   Collimator : 10(mm)   Spin : No",
"------------------------------------------------------------------------------------",
"Analyte               TG kV   uA      FI Acq.(keV)  Anal.(keV)  Time(sec)     DT(%)",
"------------------------------------------------------------------------------------",
"Na                    Rh 50  268-Auto Al  0 - 20    0.8 - 1.2   Live -  179   14",
"",
"<Profile>",
"Channel_info_start",
"Channel : Na",
"Points : 2048",
"Range : 0.000000 - 20.48",
"Step : 0.010000",
"Channel_info_end",
"0",
"0",
"0",
"0",
"0",
"14",
"7",
"17",
"25",
"12",
"15",
"14",
"17",
"29",
"89",
"85",
"39",
"70",
"476",
"1243",
"420",
"99",
"133",
"65",
"118",
"72",
"46",
"29",
"55",
"75",
"36",
"26",
"5",
"23",
"13",
"20",
"10",
"26",
"22",
"26",
"22",
"24",
"16",
"18",
"22",
"20",
"20",
"18",
"16",
"20",
"36",
"146",
"684",
"1026",
"253",
"61",
"96",
"161",
"128",
"54",
"43",
"30",
"43",
"55",
"56",
"77",
"87",
"108",
"117",
"81",
"59",
"54",
"61",
"60",
"52",
"61",
"70",
"77",
"108",
"108",
"152",
"442",
"711",
"527",
"192",
"140",
"129",
"136",
"186",
"194",
"512",
"3653",
"11421",
"14019",
"5708",
"1005",
"231",
"168",
"155",
"159",
"250",
"771",
"3436",
"8006",
"7714",
"3947",
"1530",
"987",
"1778",
"2479",
"1486",
"571",
"215",
"161",
"152",
"178",
"210",
"219",
"356",
"925",
"1358",
"1008",
"481",
"471",
"582",
"615",
"362",
"217",
"172",
"191",
"160",
"119",
"114",
"110",
"119",
"125",
"118",
"121",
"113",
"112",
"104",
"98",
"104",
"116",
"125",
"115",
"97",
"113",
"105",
"112",
"111",
"102",
"94",
"115",
"113",
"118",
"113",
"116",
"93",
"106",
"91",
"104",
"115",
"117",
"96",
"125",
"102",
"106",
"102",
"91",
"90",
"101",
"85",
"100",
"121",
"90",
"116",
"98",
"86",
"102",
"96",
"98",
"81",
"92",
"110",
"92",
"87",
"112",
"98",
"86",
"90",
"89",
"83",
"99",
"106",
"92",
"91",
"100",
"81",
"89",
"84",
"77",
"78",
"81",
"85",
"70",
"75",
"87",
"72",
"84",
"85",
"68",
"87",
"85",
"80",
"78",
"72",
"67",
"59",
"70",
"91",
"86",
"75",
"66",
"90",
"52",
"61",
"67",
"74",
"66",
"62",
"63",
"76",
"56",
"64",
"60",
"71",
"55",
"64",
"63",
"52",
"50",
"79",
"74",
"67",
"68",
"65",
"55",
"54",
"66",
"39",
"78",
"64",
"70",
"75",
"62",
"72",
"58",
"64",
"79",
"67",
"74",
"81",
"96",
"74",
"93",
"89",
"100",
"146",
"162",
"220",
"317",
"339",
"381",
"400",
"361",
"331",
"277",
"203",
"166",
"147",
"114",
"80",
"100",
"155",
"219",
"261",
"277",
"251",
"153",
"75",
"62",
"52",
"29077",
"Channel_info_start",
"Channel : Mg",
"Points : 0",
"Range : 0.000000 - 0.000000",
"Step : 0.010000",
"Channel_info_end",
"Channel_info_start",
"Channel : Al",
"Points : 0",
"Range : 0.000000 - 0.000000",
"Step : 0.010000",
"Channel_info_end",
"Channel_info_start",
"Channel : Si",
"Points : 0",
"Range : 0.000000 - 0.000000",
"Step : 0.010000",
"Channel_info_end",
"Channel_info_start",
"Channel : P ",
"Points : 0",
"Range : 0.000000 - 0.000000",
"Step : 0.010000",
"Channel_info_end",
"Channel_info_start",
"Channel : S ",
"Points : 0",
"Range : 0.000000 - 0.000000",
"Step : 0.010000",
"Channel_info_end",
"Channel_info_start",
"Channel : Cl",
"Points : 0",
"Range : 0.000000 - 0.000000",
"Step : 0.010000",
"Channel_info_end",
"Channel_info_start",
"Channel : K ",
"Points : 0",
"Range : 0.000000 - 0.000000",
"Step : 0.010000",
"Channel_info_end",
"Channel_info_start",
"Channel : Ca",
"Points : 0",
"Range : 0.000000 - 0.000000",
"Step : 0.010000",
"Channel_info_end",
"Channel_info_start",
"Channel : Ti",
"Points : 0",
"Range : 0.000000 - 0.000000",
"Step : 0.010000",
"Channel_info_end",
"Channel_info_start",
"Channel : V ",
"Points : 0",
"Range : 0.000000 - 0.000000",
"Step : 0.010000",
"Channel_info_end",
"Channel_info_start",
"Channel : Cr",
"Points : 0",
"Range : 0.000000 - 0.000000",
"Step : 0.010000",
"Channel_info_end",
"Channel_info_start",
"Channel : Mn",
"Points : 0",
"Range : 0.000000 - 0.000000",
"Step : 0.010000",
"Channel_info_end",
"Channel_info_start",
"Channel : Fe",
"Points : 0",
"Range : 0.000000 - 0.000000",
"Step : 0.010000",
"Channel_info_end",
"Channel_info_start",
"Channel : Cu",
"Points : 0",
"Range : 0.000000 - 0.000000",
"Step : 0.010000",
"Channel_info_end",
"Channel_info_start",
"Channel : Zn",
"Points : 0",
"Range : 0.000000 - 0.000000",
"Step : 0.010000",
"Channel_info_end",
"Channel_info_start",
"Channel : Sr",
"Points : 0",
"Range : 0.000000 - 0.000000",
"Step : 0.010000",
"Channel_info_end",
"Channel_info_start",
"Channel : Pb",
"Points : 0",
"Range : 0.000000 - 0.000000",
"Step : 0.010000",
"Channel_info_end",
"",
"Qualitative Result",
"--------------------------------------------------------------------------------",
"Element :  Na, Dy, Yb, Si, P , Ca, Ru",
"",
"Peak List",
"--------------------------------------------------------------------------------",
"Channel               Line        keV     Net Int.(cps/uA)",
"--------------------------------------------------------------------------------",
"Na                    NaKa         1.00     0.021",
"                      DyMa         1.32     0.261",
"                      YbMa         1.54     0.025",
"                      SiKa         1.69     0.018",
"                      P Ka         2.01     0.018",
"                      CaKa         3.68     0.290",
"                      CaKb         4.02     0.036",
"                      DyLaESC      4.74     0.022",
"                      DyLL         5.74     0.214",
"                      DyLa         6.48     4.871",
"                      DyLb1        7.24     2.947",
"                      DyLb2        7.63     0.789",
"                      DyLg1        8.40     0.341",
"                      YbLb1        8.40     0.095",
"                      DyLg2        8.70     0.165",
"                      RuKa        19.17     0.131",
"                      ----        19.48     0.057",
"                      ----        19.95     0.062",
"--------------------------------------------------------------------------------",
"",
"Quantitative Result",
"--------------------------------------------------------------------------------",
"Analyte               Result             Std.Dev. Proc.-Calc. Line Intensity(cps/uA)",
"--------------------------------------------------------------------------------",
"====[No. 1 Layer]====< Layer1               >===============================",
"Layer1                  20.248 ug/cm2    -------- Flux       -------- --------",
"Na                      20.248 ug/cm2    -------- ********** -------- --------",