File: inputs/edxCalibration/edx_raw/2010-06/DyF3 31517.20100526005522.csv
"Sample    : DyF3 31517",
"Operator  : luisf",
"Comment  : cubatao-g-policarbonato",
"Group     : kerr2007ag180cal_lt",
"Date       : 2010-05-26 00:51:18",
"",
"Mesurement Condition",
"------------------------------------------------------------------------------------",
"Instrument : 700HS2   Atmosphere : Vac.   Collimator : 10(mm)   Spin : No",
"------------------------------------------------------------------------------------",
"Analyte               TG kV   uA      FI Acq.(keV)  Anal.(keV)  Time(sec)     DT(%)",
"------------------------------------------------------------------------------------",
"Na                    Rh 50  268-Auto Al  0 - 20    0.8 - 1.2   Live -  180   15",
"",
"<Profile>",
"Channel_info_start",
"Channel : Na",
"Points : 2048",
"Range : 0.000000 - 20.48",
"Step : 0.010000",
"Channel_info_end",
"0",
"0",
"0",
"0",
"0",
"22",
"21",
"13",
"17",
"22",
"16",
"18",
"14",
"30",
"102",
"87",
"41",
"73",
"525",
"1287",
"413",
"108",
"114",
"67",
"94",
"77",
"26",
"39",
"57",
"87",
"26",
"25",
"12",
"13",
"18",
"22",
"24",
"14",
"23",
"24",
"22",
"24",
"21",
"12",
"17",
"28",
"17",
"16",
"18",
"27",
"30",
"165",
"646",
"1033",
"274",
"76",
"72",
"165",
"126",
"44",
"36",
"44",
"49",
"60",
"63",
"76",
"67",
"88",
"128",
"95",
"55",
"60",
"60",
"55",
"60",
"61",
"75",
"83",
"117",
"102",
"153",
"423",
"736",
"520",
"202",
"140",
"127",
"146",
"160",
"200",
"484",
"3529",
"11495",
"14348",
"6168",
"1114",
"233",
"176",
"168",
"177",
"222",
"738",
"3304",
"7978",
"7969",
"4140",
"1692",
"1050",
"1744",
"2485",
"1646",
"637",
"231",
"163",
"168",
"183",
"226",
"248",
"343",
"971",
"1423",
"1108",
"532",
"469",
"593",
"662",
"356",
"245",
"206",
"194",
"159",
"148",
"117",
"125",
"131",
"120",
"139",
"117",
"125",
"96",
"127",
"110",
"106",
"120",
"136",
"103",
"123",
"122",
"113",
"115",
"123",
"135",
"103",
"119",
"85",
"129",
"121",
"87",
"101",
"102",
"115",
"108",
"98",
"106",
"106",
"117",
"119",
"119",
"84",
"101",
"88",
"117",
"84",
"96",
"94",
"111",
"104",
"77",
"85",
"90",
"110",
"91",
"96",
"91",
"94",
"107",
"123",
"116",
"101",
"92",
"92",
"95",
"101",
"96",
"90",
"107",
"91",
"91",
"78",
"98",
"99",
"102",
"73",
"107",
"82",
"87",
"78",
"76",
"85",
"66",
"89",
"89",
"89",
"86",
"69",
"79",
"71",
"76",
"87",
"75",
"70",
"62",
"61",
"82",
"65",
"73",
"70",
"62",
"64",
"78",
"61",
"74",
"60",
"51",
"60",
"83",
"75",
"69",
"72",
"55",
"80",
"70",
"50",
"67",
"64",
"73",
"59",
"82",
"59",
"60",
"55",
"57",
"54",
"80",
"66",
"64",
"64",
"65",
"60",
"65",
"64",
"72",
"65",
"86",
"77",
"88",
"94",
"99",
"154",
"177",
"220",
"275",
"356",
"386",
"407",
"376",
"367",
"290",
"248",
"182",
"172",
"87",
"102",
"112",
"148",
"174",
"261",
"257",
"259",
"149",
"108",
"82",
"57",
"29884",
"Channel_info_start",
"Channel : Mg",
"Points : 0",
"Range : 0.000000 - 0.000000",
"Step : 0.010000",
"Channel_info_end",
"Channel_info_start",
"Channel : Al",
"Points : 0",
"Range : 0.000000 - 0.000000",
"Step : 0.010000",
"Channel_info_end",
"Channel_info_start",
"Channel : Si",
"Points : 0",
"Range : 0.000000 - 0.000000",
"Step : 0.010000",
"Channel_info_end",
"Channel_info_start",
"Channel : P ",
"Points : 0",
"Range : 0.000000 - 0.000000",
"Step : 0.010000",
"Channel_info_end",
"Channel_info_start",
"Channel : S ",
"Points : 0",
"Range : 0.000000 - 0.000000",
"Step : 0.010000",
"Channel_info_end",
"Channel_info_start",
"Channel : Cl",
"Points : 0",
"Range : 0.000000 - 0.000000",
"Step : 0.010000",
"Channel_info_end",
"Channel_info_start",
"Channel : K ",
"Points : 0",
"Range : 0.000000 - 0.000000",
"Step : 0.010000",
"Channel_info_end",
"Channel_info_start",
"Channel : Ca",
"Points : 0",
"Range : 0.000000 - 0.000000",
"Step : 0.010000",
"Channel_info_end",
"Channel_info_start",
"Channel : Ti",
"Points : 0",
"Range : 0.000000 - 0.000000",
"Step : 0.010000",
"Channel_info_end",
"Channel_info_start",
"Channel : V ",
"Points : 0",
"Range : 0.000000 - 0.000000",
"Step : 0.010000",
"Channel_info_end",
"Channel_info_start",
"Channel : Cr",
"Points : 0",
"Range : 0.000000 - 0.000000",
"Step : 0.010000",
"Channel_info_end",
"Channel_info_start",
"Channel : Mn",
"Points : 0",
"Range : 0.000000 - 0.000000",
"Step : 0.010000",
"Channel_info_end",
"Channel_info_start",
"Channel : Fe",
"Points : 0",
"Range : 0.000000 - 0.000000",
"Step : 0.010000",
"Channel_info_end",
"Channel_info_start",
"Channel : Cu",
"Points : 0",
"Range : 0.000000 - 0.000000",
"Step : 0.010000",
"Channel_info_end",
"Channel_info_start",
"Channel : Zn",
"Points : 0",
"Range : 0.000000 - 0.000000",
"Step : 0.010000",
"Channel_info_end",
"Channel_info_start",
"Channel : Sr",
"Points : 0",
"Range : 0.000000 - 0.000000",
"Step : 0.010000",
"Channel_info_end",
"Channel_info_start",
"Channel : Pb",
"Points : 0",
"Range : 0.000000 - 0.000000",
"Step : 0.010000",
"Channel_info_end",
"",
"Qualitative Result",
"--------------------------------------------------------------------------------",
"Element :  Na, Dy, Yb, Si, P , Ca, Rh",
"",
"Peak List",
"--------------------------------------------------------------------------------",
"Channel               Line        keV     Net Int.(cps/uA)",
"--------------------------------------------------------------------------------",
"Na                    NaKa         1.01     0.019",
"                      DyMa         1.32     0.272",
"                      YbMa         1.55     0.020",
"                      SiKa         1.72     0.016",
"                      P Ka         2.00     0.019",
"                      CaKa         3.68     0.288",
"                      CaKb         4.01     0.037",
"                      DyLaESC      4.76     0.019",
"                      DyLL         5.75     0.220",
"                      DyLa         6.48     4.954",
"                      DyLb1        7.24     2.947",
"                      DyLb2        7.63     0.751",
"                      DyLg1        8.40     0.347",
"                      YbLb1        8.40     0.090",
"                      DyLg2        8.72     0.178",
"                      RhKaC       19.17     0.138",
"                      ----        19.45     0.060",
"                      RhKa        20.05     0.101",
"--------------------------------------------------------------------------------",
"",
"Quantitative Result",
"--------------------------------------------------------------------------------",
"Analyte               Result             Std.Dev. Proc.-Calc. Line Intensity(cps/uA)",
"--------------------------------------------------------------------------------",
"====[No. 1 Layer]====< Layer1               >===============================",
"Layer1                  18.054 ug/cm2    -------- Flux       -------- --------",
"Na                      18.054 ug/cm2    -------- ********** -------- --------",