File: inputs/edxCalibration/edx_raw/2010-06/Fe 31500.20100611005202.csv
"Sample    : Fe 31500",
"Operator  : thiago",
"Comment  : cubatao-g-policarbonato",
"Group     : kerr2007ag180cal_lt",
"Date       : 2010-06-11 00:47:57",
"",
"Mesurement Condition",
"------------------------------------------------------------------------------------",
"Instrument : 700HS2   Atmosphere : Vac.   Collimator : 10(mm)   Spin : No",
"------------------------------------------------------------------------------------",
"Analyte               TG kV   uA      FI Acq.(keV)  Anal.(keV)  Time(sec)     DT(%)",
"------------------------------------------------------------------------------------",
"Na                    Rh 50  187-Auto Al  0 - 20    0.8 - 1.2   Live -  180   16",
"",
"<Profile>",
"Channel_info_start",
"Channel : Na",
"Points : 2048",
"Range : 0.000000 - 20.48",
"Step : 0.010000",
"Channel_info_end",
"0",
"0",
"0",
"0",
"0",
"12",
"12",
"20",
"7",
"18",
"28",
"20",
"19",
"10",
"10",
"11",
"10",
"16",
"10",
"11",
"15",
"19",
"16",
"16",
"16",
"14",
"25",
"25",
"57",
"48",
"31",
"12",
"20",
"15",
"13",
"8",
"11",
"15",
"10",
"19",
"16",
"13",
"15",
"19",
"12",
"23",
"11",
"18",
"22",
"15",
"24",
"88",
"450",
"678",
"203",
"53",
"68",
"117",
"85",
"22",
"22",
"30",
"25",
"42",
"37",
"93",
"140",
"130",
"76",
"36",
"42",
"54",
"46",
"54",
"59",
"76",
"83",
"92",
"65",
"73",
"61",
"71",
"80",
"72",
"69",
"123",
"126",
"163",
"298",
"1918",
"13626",
"35856",
"28959",
"8166",
"832",
"179",
"158",
"181",
"300",
"1395",
"3788",
"4693",
"1971",
"389",
"83",
"57",
"71",
"69",
"65",
"83",
"58",
"69",
"67",
"65",
"76",
"67",
"64",
"60",
"76",
"76",
"62",
"88",
"85",
"114",
"90",
"60",
"71",
"72",
"60",
"65",
"72",
"66",
"57",
"60",
"58",
"60",
"66",
"73",
"67",
"58",
"68",
"76",
"69",
"67",
"65",
"69",
"76",
"75",
"57",
"73",
"64",
"76",
"71",
"77",
"55",
"56",
"61",
"68",
"57",
"54",
"66",
"60",
"51",
"69",
"68",
"68",
"64",
"64",
"64",
"59",
"62",
"61",
"70",
"62",
"38",
"57",
"54",
"53",
"56",
"51",
"58",
"72",
"82",
"127",
"98",
"65",
"64",
"60",
"56",
"65",
"56",
"58",
"61",
"64",
"56",
"49",
"41",
"64",
"55",
"58",
"57",
"50",
"53",
"59",
"43",
"50",
"49",
"55",
"38",
"46",
"59",
"32",
"51",
"43",
"47",
"60",
"49",
"33",
"39",
"42",
"46",
"35",
"50",
"30",
"36",
"50",
"32",
"36",
"45",
"44",
"53",
"35",
"50",
"50",
"41",
"45",
"46",
"50",
"35",
"39",
"44",
"42",
"53",
"34",
"44",
"47",
"57",
"48",
"43",
"49",
"38",
"45",
"48",
"55",
"46",
"44",
"48",
"47",
"43",
"38",
"47",
"55",
"44",
"65",
"64",
"69",
"56",
"79",
"108",
"129",
"169",
"209",
"209",
"257",
"273",
"287",
"283",
"197",
"138",
"128",
"107",
"54",
"73",
"58",
"96",
"114",
"148",
"150",
"124",
"84",
"50",
"37",
"36",
"18828",
"Channel_info_start",
"Channel : Mg",
"Points : 0",
"Range : 0.000000 - 0.000000",
"Step : 0.010000",
"Channel_info_end",
"Channel_info_start",
"Channel : Al",
"Points : 0",
"Range : 0.000000 - 0.000000",
"Step : 0.010000",
"Channel_info_end",
"Channel_info_start",
"Channel : Si",
"Points : 0",
"Range : 0.000000 - 0.000000",
"Step : 0.010000",
"Channel_info_end",
"Channel_info_start",
"Channel : P ",
"Points : 0",
"Range : 0.000000 - 0.000000",
"Step : 0.010000",
"Channel_info_end",
"Channel_info_start",
"Channel : S ",
"Points : 0",
"Range : 0.000000 - 0.000000",
"Step : 0.010000",
"Channel_info_end",
"Channel_info_start",
"Channel : Cl",
"Points : 0",
"Range : 0.000000 - 0.000000",
"Step : 0.010000",
"Channel_info_end",
"Channel_info_start",
"Channel : K ",
"Points : 0",
"Range : 0.000000 - 0.000000",
"Step : 0.010000",
"Channel_info_end",
"Channel_info_start",
"Channel : Ca",
"Points : 0",
"Range : 0.000000 - 0.000000",
"Step : 0.010000",
"Channel_info_end",
"Channel_info_start",
"Channel : Ti",
"Points : 0",
"Range : 0.000000 - 0.000000",
"Step : 0.010000",
"Channel_info_end",
"Channel_info_start",
"Channel : V ",
"Points : 0",
"Range : 0.000000 - 0.000000",
"Step : 0.010000",
"Channel_info_end",
"Channel_info_start",
"Channel : Cr",
"Points : 0",
"Range : 0.000000 - 0.000000",
"Step : 0.010000",
"Channel_info_end",
"Channel_info_start",
"Channel : Mn",
"Points : 0",
"Range : 0.000000 - 0.000000",
"Step : 0.010000",
"Channel_info_end",
"Channel_info_start",
"Channel : Fe",
"Points : 0",
"Range : 0.000000 - 0.000000",
"Step : 0.010000",
"Channel_info_end",
"Channel_info_start",
"Channel : Cu",
"Points : 0",
"Range : 0.000000 - 0.000000",
"Step : 0.010000",
"Channel_info_end",
"Channel_info_start",
"Channel : Zn",
"Points : 0",
"Range : 0.000000 - 0.000000",
"Step : 0.010000",
"Channel_info_end",
"Channel_info_start",
"Channel : Sr",
"Points : 0",
"Range : 0.000000 - 0.000000",
"Step : 0.010000",
"Channel_info_end",
"Channel_info_start",
"Channel : Pb",
"Points : 0",
"Range : 0.000000 - 0.000000",
"Step : 0.010000",
"Channel_info_end",
"",
"Qualitative Result",
"--------------------------------------------------------------------------------",
"Element :  P , Ca, Fe, Rh",
"",
"Peak List",
"--------------------------------------------------------------------------------",
"Channel               Line        keV     Net Int.(cps/uA)",
"--------------------------------------------------------------------------------",
"Na                    P Ka         1.98     0.021",
"                      CaKa         3.68     0.288",
"                      CaKb         4.00     0.039",
"                      FeKaESC      4.64     0.071",
"                      FeKa         6.40    18.197",
"                      FeKb         7.04     2.347",
"                      FeKaSUM     12.80     0.041",
"                      RhKaC       19.28     0.126",
"                      RhKa        20.05     0.052",
"--------------------------------------------------------------------------------",
"",
"Quantitative Result",
"--------------------------------------------------------------------------------",
"Analyte               Result             Std.Dev. Proc.-Calc. Line Intensity(cps/uA)",
"--------------------------------------------------------------------------------",
"====[No. 1 Layer]====< Layer1               >===============================",
"Layer1                   0.000 ug/cm2    -------- Flux       -------- --------",