File: inputs/edxCalibration/edx_raw/2010-06/GaP 15753.20100525202812.csv
"Sample    : GaP 15753",
"Operator  : thiago",
"Comment  : cubatao-g-policarbonato",
"Group     : kerr2007ag180cal_lt",
"Date       : 2010-05-25 20:24:00",
"",
"Mesurement Condition",
"------------------------------------------------------------------------------------",
"Instrument : 700HS2   Atmosphere : Vac.   Collimator : 10(mm)   Spin : No",
"------------------------------------------------------------------------------------",
"Analyte               TG kV   uA      FI Acq.(keV)  Anal.(keV)  Time(sec)     DT(%)",
"------------------------------------------------------------------------------------",
"Na                    Rh 50  393-Auto Al  0 - 20    0.8 - 1.2   Live -  179   15",
"",
"<Profile>",
"Channel_info_start",
"Channel : Na",
"Points : 2048",
"Range : 0.000000 - 20.48",
"Step : 0.010000",
"Channel_info_end",
"0",
"0",
"0",
"0",
"1",
"40",
"25",
"30",
"32",
"23",
"28",
"27",
"30",
"40",
"57",
"227",
"477",
"215",
"52",
"25",
"28",
"28",
"41",
"54",
"83",
"171",
"181",
"345",
"2216",
"3686",
"801",
"231",
"41",
"20",
"12",
"17",
"11",
"15",
"21",
"20",
"17",
"14",
"14",
"13",
"19",
"16",
"25",
"14",
"22",
"30",
"25",
"139",
"573",
"815",
"224",
"82",
"65",
"134",
"117",
"48",
"33",
"42",
"53",
"59",
"65",
"111",
"70",
"68",
"65",
"62",
"46",
"74",
"64",
"79",
"69",
"62",
"76",
"72",
"68",
"81",
"76",
"78",
"73",
"96",
"90",
"109",
"93",
"100",
"113",
"123",
"131",
"119",
"135",
"145",
"129",
"131",
"136",
"131",
"144",
"155",
"144",
"151",
"142",
"154",
"136",
"122",
"185",
"163",
"164",
"140",
"123",
"158",
"143",
"158",
"180",
"216",
"169",
"150",
"136",
"138",
"143",
"169",
"168",
"210",
"222",
"180",
"167",
"176",
"281",
"1035",
"4956",
"15299",
"20646",
"13072",
"3977",
"752",
"238",
"188",
"145",
"135",
"150",
"166",
"178",
"250",
"475",
"1535",
"2629",
"2732",
"1304",
"477",
"183",
"155",
"138",
"136",
"118",
"117",
"123",
"133",
"114",
"127",
"148",
"149",
"109",
"147",
"124",
"110",
"115",
"133",
"119",
"103",
"106",
"113",
"125",
"119",
"117",
"120",
"111",
"114",
"102",
"109",
"89",
"94",
"110",
"123",
"98",
"118",
"118",
"125",
"101",
"101",
"113",
"100",
"86",
"108",
"85",
"93",
"108",
"125",
"111",
"95",
"100",
"117",
"84",
"87",
"101",
"89",
"91",
"107",
"97",
"76",
"87",
"109",
"101",
"105",
"97",
"115",
"94",
"86",
"79",
"85",
"83",
"99",
"108",
"81",
"93",
"87",
"87",
"91",
"81",
"88",
"86",
"78",
"88",
"85",
"74",
"87",
"76",
"72",
"81",
"70",
"75",
"88",
"89",
"82",
"77",
"78",
"70",
"85",
"89",
"77",
"64",
"82",
"82",
"88",
"88",
"88",
"96",
"66",
"74",
"88",
"105",
"103",
"84",
"120",
"149",
"135",
"132",
"171",
"209",
"259",
"330",
"438",
"474",
"533",
"509",
"570",
"518",
"380",
"317",
"225",
"187",
"120",
"109",
"118",
"126",
"163",
"220",
"255",
"230",
"124",
"114",
"90",
"85",
"37894",
"Channel_info_start",
"Channel : Mg",
"Points : 0",
"Range : 0.000000 - 0.000000",
"Step : 0.010000",
"Channel_info_end",
"Channel_info_start",
"Channel : Al",
"Points : 0",
"Range : 0.000000 - 0.000000",
"Step : 0.010000",
"Channel_info_end",
"Channel_info_start",
"Channel : Si",
"Points : 0",
"Range : 0.000000 - 0.000000",
"Step : 0.010000",
"Channel_info_end",
"Channel_info_start",
"Channel : P ",
"Points : 0",
"Range : 0.000000 - 0.000000",
"Step : 0.010000",
"Channel_info_end",
"Channel_info_start",
"Channel : S ",
"Points : 0",
"Range : 0.000000 - 0.000000",
"Step : 0.010000",
"Channel_info_end",
"Channel_info_start",
"Channel : Cl",
"Points : 0",
"Range : 0.000000 - 0.000000",
"Step : 0.010000",
"Channel_info_end",
"Channel_info_start",
"Channel : K ",
"Points : 0",
"Range : 0.000000 - 0.000000",
"Step : 0.010000",
"Channel_info_end",
"Channel_info_start",
"Channel : Ca",
"Points : 0",
"Range : 0.000000 - 0.000000",
"Step : 0.010000",
"Channel_info_end",
"Channel_info_start",
"Channel : Ti",
"Points : 0",
"Range : 0.000000 - 0.000000",
"Step : 0.010000",
"Channel_info_end",
"Channel_info_start",
"Channel : V ",
"Points : 0",
"Range : 0.000000 - 0.000000",
"Step : 0.010000",
"Channel_info_end",
"Channel_info_start",
"Channel : Cr",
"Points : 0",
"Range : 0.000000 - 0.000000",
"Step : 0.010000",
"Channel_info_end",
"Channel_info_start",
"Channel : Mn",
"Points : 0",
"Range : 0.000000 - 0.000000",
"Step : 0.010000",
"Channel_info_end",
"Channel_info_start",
"Channel : Fe",
"Points : 0",
"Range : 0.000000 - 0.000000",
"Step : 0.010000",
"Channel_info_end",
"Channel_info_start",
"Channel : Cu",
"Points : 0",
"Range : 0.000000 - 0.000000",
"Step : 0.010000",
"Channel_info_end",
"Channel_info_start",
"Channel : Zn",
"Points : 0",
"Range : 0.000000 - 0.000000",
"Step : 0.010000",
"Channel_info_end",
"Channel_info_start",
"Channel : Sr",
"Points : 0",
"Range : 0.000000 - 0.000000",
"Step : 0.010000",
"Channel_info_end",
"Channel_info_start",
"Channel : Pb",
"Points : 0",
"Range : 0.000000 - 0.000000",
"Step : 0.010000",
"Channel_info_end",
"",
"Qualitative Result",
"--------------------------------------------------------------------------------",
"Element :  Ga, Si, P , Ru",
"",
"Peak List",
"--------------------------------------------------------------------------------",
"Channel               Line        keV     Net Int.(cps/uA)",
"--------------------------------------------------------------------------------",
"Na                    GaLa         1.12     0.069",
"                      SiKa         1.76     0.023",
"                      P Ka         2.00     0.663",
"                      ----         3.68     0.166",
"                      P KaSUM      4.01     0.018",
"                      GaKa         9.24     5.172",
"                      GaKb        10.24     0.720",
"                      RuKa        19.16     0.122",
"                      ----        19.45     0.053",
"                      ----        20.02     0.046",
"--------------------------------------------------------------------------------",
"",
"Quantitative Result",
"--------------------------------------------------------------------------------",
"Analyte               Result             Std.Dev. Proc.-Calc. Line Intensity(cps/uA)",
"--------------------------------------------------------------------------------",
"====[No. 1 Layer]====< Layer1               >===============================",
"Layer1                   0.000 ug/cm2    -------- Flux       -------- --------",