File: inputs/edxCalibration/edx_raw/2010-06/kcl 31495.20100611000453.csv
"Sample    : kcl 31495",
"Operator  : thiago",
"Comment  : cubatao-g-policarbonato",
"Group     : kerr2007ag180cal_lt",
"Date       : 2010-06-11 00:00:39",
"",
"Mesurement Condition",
"------------------------------------------------------------------------------------",
"Instrument : 700HS2   Atmosphere : Vac.   Collimator : 10(mm)   Spin : No",
"------------------------------------------------------------------------------------",
"Analyte               TG kV   uA      FI Acq.(keV)  Anal.(keV)  Time(sec)     DT(%)",
"------------------------------------------------------------------------------------",
"Na                    Rh 50  548-Auto Al  0 - 20    0.8 - 1.2   Live -  179   15",
"",
"<Profile>",
"Channel_info_start",
"Channel : Na",
"Points : 2048",
"Range : 0.000000 - 20.48",
"Step : 0.010000",
"Channel_info_end",
"0",
"0",
"0",
"0",
"0",
"50",
"37",
"29",
"31",
"37",
"39",
"61",
"163",
"173",
"67",
"64",
"48",
"55",
"56",
"48",
"62",
"90",
"269",
"262",
"79",
"76",
"96",
"95",
"191",
"237",
"133",
"133",
"151",
"206",
"251",
"274",
"1469",
"8486",
"7732",
"1480",
"1039",
"750",
"227",
"215",
"261",
"463",
"4267",
"18638",
"13587",
"2178",
"794",
"2575",
"2837",
"2172",
"560",
"106",
"137",
"281",
"240",
"72",
"44",
"59",
"56",
"87",
"95",
"110",
"110",
"130",
"138",
"127",
"106",
"114",
"94",
"78",
"75",
"96",
"91",
"109",
"105",
"94",
"105",
"92",
"114",
"105",
"111",
"136",
"119",
"134",
"126",
"151",
"146",
"180",
"160",
"161",
"189",
"172",
"197",
"164",
"180",
"176",
"187",
"193",
"224",
"230",
"219",
"200",
"200",
"202",
"190",
"203",
"156",
"219",
"197",
"244",
"242",
"289",
"195",
"187",
"191",
"201",
"200",
"215",
"235",
"292",
"269",
"184",
"170",
"209",
"206",
"150",
"170",
"182",
"156",
"156",
"179",
"196",
"197",
"207",
"194",
"183",
"190",
"173",
"192",
"187",
"193",
"190",
"214",
"210",
"195",
"179",
"187",
"178",
"171",
"168",
"180",
"180",
"155",
"166",
"178",
"202",
"195",
"184",
"183",
"150",
"164",
"160",
"169",
"161",
"173",
"174",
"193",
"200",
"161",
"160",
"162",
"190",
"184",
"153",
"168",
"161",
"164",
"140",
"139",
"176",
"171",
"164",
"155",
"172",
"136",
"146",
"167",
"148",
"144",
"153",
"143",
"152",
"149",
"135",
"141",
"157",
"172",
"151",
"146",
"112",
"130",
"146",
"138",
"144",
"134",
"151",
"135",
"146",
"117",
"137",
"146",
"118",
"136",
"124",
"138",
"134",
"90",
"126",
"134",
"139",
"144",
"122",
"114",
"112",
"161",
"125",
"127",
"126",
"107",
"132",
"92",
"122",
"109",
"115",
"116",
"98",
"123",
"112",
"109",
"105",
"138",
"107",
"105",
"103",
"115",
"121",
"107",
"130",
"112",
"117",
"122",
"124",
"132",
"116",
"106",
"135",
"145",
"139",
"121",
"146",
"151",
"190",
"189",
"258",
"300",
"368",
"443",
"588",
"706",
"750",
"796",
"779",
"686",
"615",
"423",
"328",
"278",
"213",
"193",
"190",
"196",
"274",
"299",
"316",
"341",
"233",
"138",
"119",
"111",
"54297",
"Channel_info_start",
"Channel : Mg",
"Points : 0",
"Range : 0.000000 - 0.000000",
"Step : 0.010000",
"Channel_info_end",
"Channel_info_start",
"Channel : Al",
"Points : 0",
"Range : 0.000000 - 0.000000",
"Step : 0.010000",
"Channel_info_end",
"Channel_info_start",
"Channel : Si",
"Points : 0",
"Range : 0.000000 - 0.000000",
"Step : 0.010000",
"Channel_info_end",
"Channel_info_start",
"Channel : P ",
"Points : 0",
"Range : 0.000000 - 0.000000",
"Step : 0.010000",
"Channel_info_end",
"Channel_info_start",
"Channel : S ",
"Points : 0",
"Range : 0.000000 - 0.000000",
"Step : 0.010000",
"Channel_info_end",
"Channel_info_start",
"Channel : Cl",
"Points : 0",
"Range : 0.000000 - 0.000000",
"Step : 0.010000",
"Channel_info_end",
"Channel_info_start",
"Channel : K ",
"Points : 0",
"Range : 0.000000 - 0.000000",
"Step : 0.010000",
"Channel_info_end",
"Channel_info_start",
"Channel : Ca",
"Points : 0",
"Range : 0.000000 - 0.000000",
"Step : 0.010000",
"Channel_info_end",
"Channel_info_start",
"Channel : Ti",
"Points : 0",
"Range : 0.000000 - 0.000000",
"Step : 0.010000",
"Channel_info_end",
"Channel_info_start",
"Channel : V ",
"Points : 0",
"Range : 0.000000 - 0.000000",
"Step : 0.010000",
"Channel_info_end",
"Channel_info_start",
"Channel : Cr",
"Points : 0",
"Range : 0.000000 - 0.000000",
"Step : 0.010000",
"Channel_info_end",
"Channel_info_start",
"Channel : Mn",
"Points : 0",
"Range : 0.000000 - 0.000000",
"Step : 0.010000",
"Channel_info_end",
"Channel_info_start",
"Channel : Fe",
"Points : 0",
"Range : 0.000000 - 0.000000",
"Step : 0.010000",
"Channel_info_end",
"Channel_info_start",
"Channel : Cu",
"Points : 0",
"Range : 0.000000 - 0.000000",
"Step : 0.010000",
"Channel_info_end",
"Channel_info_start",
"Channel : Zn",
"Points : 0",
"Range : 0.000000 - 0.000000",
"Step : 0.010000",
"Channel_info_end",
"Channel_info_start",
"Channel : Sr",
"Points : 0",
"Range : 0.000000 - 0.000000",
"Step : 0.010000",
"Channel_info_end",
"Channel_info_start",
"Channel : Pb",
"Points : 0",
"Range : 0.000000 - 0.000000",
"Step : 0.010000",
"Channel_info_end",
"",
"Qualitative Result",
"--------------------------------------------------------------------------------",
"Element :  K , P , Cl, Ca, Zn, Ru",
"",
"Peak List",
"--------------------------------------------------------------------------------",
"Channel               Line        keV     Net Int.(cps/uA)",
"--------------------------------------------------------------------------------",
"Na                    ----         0.88     0.017",
"                      K KaESC      1.56     0.026",
"                      P Ka         2.00     0.015",
"                      ClKa         2.62     1.289",
"                      ClKb         2.84     0.102",
"                      K Ka         3.32     2.727",
"                      K Kb         3.60     0.377",
"                      CaKa         3.69     0.229",
"                      CaKb         4.01     0.032",
"                      ----         4.76     0.012",
"                      ZnKa         8.63     0.019",
"                      RuKa        19.24     0.124",
"                      ----        19.95     0.028",
"--------------------------------------------------------------------------------",
"",
"Quantitative Result",
"--------------------------------------------------------------------------------",
"Analyte               Result             Std.Dev. Proc.-Calc. Line Intensity(cps/uA)",
"--------------------------------------------------------------------------------",
"====[No. 1 Layer]====< Layer1               >===============================",
"Layer1                   0.000 ug/cm2    -------- Flux       -------- --------",