File: inputs/edxCalibration/edx_raw/2010-06/KCl 31495.20100525205136.csv
"Sample    : KCl 31495",
"Operator  : luisf",
"Comment  : cubatao-g-policarbonato",
"Group     : kerr2007ag180cal_lt",
"Date       : 2010-05-25 20:47:22",
"",
"Mesurement Condition",
"------------------------------------------------------------------------------------",
"Instrument : 700HS2   Atmosphere : Vac.   Collimator : 10(mm)   Spin : No",
"------------------------------------------------------------------------------------",
"Analyte               TG kV   uA      FI Acq.(keV)  Anal.(keV)  Time(sec)     DT(%)",
"------------------------------------------------------------------------------------",
"Na                    Rh 50  548-Auto Al  0 - 20    0.8 - 1.2   Live -  179   15",
"",
"<Profile>",
"Channel_info_start",
"Channel : Na",
"Points : 2048",
"Range : 0.000000 - 20.48",
"Step : 0.010000",
"Channel_info_end",
"0",
"0",
"0",
"0",
"2",
"34",
"20",
"37",
"39",
"50",
"47",
"54",
"173",
"187",
"66",
"72",
"46",
"48",
"50",
"66",
"70",
"95",
"263",
"210",
"58",
"83",
"93",
"103",
"201",
"209",
"137",
"140",
"178",
"227",
"210",
"286",
"1515",
"8577",
"7676",
"1462",
"1080",
"804",
"236",
"207",
"249",
"439",
"4360",
"18634",
"13866",
"2084",
"817",
"2524",
"2810",
"2087",
"593",
"141",
"126",
"253",
"198",
"90",
"37",
"50",
"54",
"84",
"90",
"101",
"93",
"83",
"110",
"91",
"89",
"81",
"88",
"103",
"79",
"81",
"91",
"109",
"91",
"100",
"89",
"107",
"101",
"114",
"124",
"122",
"116",
"173",
"124",
"148",
"112",
"168",
"157",
"160",
"161",
"168",
"187",
"185",
"167",
"208",
"167",
"220",
"185",
"195",
"170",
"195",
"189",
"184",
"193",
"197",
"213",
"195",
"238",
"212",
"252",
"271",
"208",
"191",
"174",
"203",
"186",
"220",
"234",
"291",
"267",
"205",
"195",
"198",
"191",
"201",
"184",
"197",
"180",
"194",
"191",
"206",
"170",
"177",
"198",
"186",
"198",
"191",
"161",
"181",
"173",
"189",
"169",
"224",
"184",
"200",
"168",
"213",
"181",
"216",
"166",
"182",
"179",
"158",
"182",
"183",
"184",
"180",
"163",
"196",
"163",
"150",
"151",
"204",
"170",
"187",
"150",
"168",
"130",
"173",
"157",
"163",
"173",
"166",
"150",
"190",
"183",
"149",
"141",
"161",
"157",
"177",
"137",
"171",
"158",
"162",
"135",
"166",
"163",
"192",
"129",
"147",
"153",
"124",
"145",
"148",
"135",
"127",
"115",
"158",
"134",
"129",
"125",
"158",
"146",
"133",
"137",
"152",
"134",
"146",
"116",
"135",
"153",
"139",
"129",
"122",
"132",
"122",
"114",
"111",
"127",
"133",
"110",
"123",
"148",
"115",
"111",
"101",
"125",
"112",
"106",
"93",
"134",
"126",
"116",
"128",
"101",
"107",
"115",
"116",
"104",
"111",
"119",
"127",
"119",
"116",
"99",
"122",
"117",
"114",
"123",
"125",
"130",
"104",
"122",
"109",
"138",
"126",
"128",
"145",
"164",
"162",
"185",
"239",
"292",
"403",
"462",
"601",
"718",
"765",
"761",
"804",
"736",
"567",
"457",
"346",
"249",
"218",
"149",
"201",
"204",
"265",
"327",
"369",
"289",
"195",
"158",
"110",
"107",
"54055",
"Channel_info_start",
"Channel : Mg",
"Points : 0",
"Range : 0.000000 - 0.000000",
"Step : 0.010000",
"Channel_info_end",
"Channel_info_start",
"Channel : Al",
"Points : 0",
"Range : 0.000000 - 0.000000",
"Step : 0.010000",
"Channel_info_end",
"Channel_info_start",
"Channel : Si",
"Points : 0",
"Range : 0.000000 - 0.000000",
"Step : 0.010000",
"Channel_info_end",
"Channel_info_start",
"Channel : P ",
"Points : 0",
"Range : 0.000000 - 0.000000",
"Step : 0.010000",
"Channel_info_end",
"Channel_info_start",
"Channel : S ",
"Points : 0",
"Range : 0.000000 - 0.000000",
"Step : 0.010000",
"Channel_info_end",
"Channel_info_start",
"Channel : Cl",
"Points : 0",
"Range : 0.000000 - 0.000000",
"Step : 0.010000",
"Channel_info_end",
"Channel_info_start",
"Channel : K ",
"Points : 0",
"Range : 0.000000 - 0.000000",
"Step : 0.010000",
"Channel_info_end",
"Channel_info_start",
"Channel : Ca",
"Points : 0",
"Range : 0.000000 - 0.000000",
"Step : 0.010000",
"Channel_info_end",
"Channel_info_start",
"Channel : Ti",
"Points : 0",
"Range : 0.000000 - 0.000000",
"Step : 0.010000",
"Channel_info_end",
"Channel_info_start",
"Channel : V ",
"Points : 0",
"Range : 0.000000 - 0.000000",
"Step : 0.010000",
"Channel_info_end",
"Channel_info_start",
"Channel : Cr",
"Points : 0",
"Range : 0.000000 - 0.000000",
"Step : 0.010000",
"Channel_info_end",
"Channel_info_start",
"Channel : Mn",
"Points : 0",
"Range : 0.000000 - 0.000000",
"Step : 0.010000",
"Channel_info_end",
"Channel_info_start",
"Channel : Fe",
"Points : 0",
"Range : 0.000000 - 0.000000",
"Step : 0.010000",
"Channel_info_end",
"Channel_info_start",
"Channel : Cu",
"Points : 0",
"Range : 0.000000 - 0.000000",
"Step : 0.010000",
"Channel_info_end",
"Channel_info_start",
"Channel : Zn",
"Points : 0",
"Range : 0.000000 - 0.000000",
"Step : 0.010000",
"Channel_info_end",
"Channel_info_start",
"Channel : Sr",
"Points : 0",
"Range : 0.000000 - 0.000000",
"Step : 0.010000",
"Channel_info_end",
"Channel_info_start",
"Channel : Pb",
"Points : 0",
"Range : 0.000000 - 0.000000",
"Step : 0.010000",
"Channel_info_end",
"",
"Qualitative Result",
"--------------------------------------------------------------------------------",
"Element :  P , Cl, K , Ca, Zn",
"",
"Peak List",
"--------------------------------------------------------------------------------",
"Channel               Line        keV     Net Int.(cps/uA)",
"--------------------------------------------------------------------------------",
"Na                    ----         0.87     0.017",
"                      ----         1.57     0.029",
"                      P Ka         2.01     0.015",
"                      ClKa         2.62     1.296",
"                      ClKb         2.84     0.106",
"                      K Ka         3.32     2.767",
"                      K Kb         3.61     0.392",
"                      CaKa         3.69     0.215",
"                      CaKb         4.02     0.030",
"                      ZnKa         8.60     0.018",
"                      ----        19.13     0.135",
"                      ----        19.40     0.072",
"                      ----        20.00     0.044",
"--------------------------------------------------------------------------------",
"",
"Quantitative Result",
"--------------------------------------------------------------------------------",
"Analyte               Result             Std.Dev. Proc.-Calc. Line Intensity(cps/uA)",
"--------------------------------------------------------------------------------",
"====[No. 1 Layer]====< Layer1               >===============================",
"Layer1                   0.000 ug/cm2    -------- Flux       -------- --------",