File: inputs/edxCalibration/edx_raw/2010-06/kcl 31494.20100611000902.csv
"Sample    : kcl 31494",
"Operator  : thiago",
"Comment  : cubatao-g-policarbonato",
"Group     : kerr2007ag180cal_lt",
"Date       : 2010-06-11 00:04:51",
"",
"Mesurement Condition",
"------------------------------------------------------------------------------------",
"Instrument : 700HS2   Atmosphere : Vac.   Collimator : 10(mm)   Spin : No",
"------------------------------------------------------------------------------------",
"Analyte               TG kV   uA      FI Acq.(keV)  Anal.(keV)  Time(sec)     DT(%)",
"------------------------------------------------------------------------------------",
"Na                    Rh 50  500-Auto Al  0 - 20    0.8 - 1.2   Live -  179   15",
"",
"<Profile>",
"Channel_info_start",
"Channel : Na",
"Points : 2048",
"Range : 0.000000 - 20.48",
"Step : 0.010000",
"Channel_info_end",
"0",
"0",
"0",
"0",
"0",
"31",
"25",
"49",
"29",
"33",
"34",
"48",
"135",
"168",
"45",
"59",
"44",
"41",
"47",
"50",
"62",
"80",
"245",
"221",
"82",
"75",
"85",
"98",
"163",
"212",
"120",
"160",
"173",
"188",
"229",
"314",
"1340",
"8104",
"7355",
"1437",
"1076",
"744",
"231",
"216",
"235",
"429",
"3993",
"18252",
"12995",
"2018",
"719",
"2419",
"2684",
"1994",
"506",
"113",
"120",
"262",
"189",
"70",
"40",
"44",
"44",
"74",
"88",
"91",
"88",
"100",
"91",
"104",
"109",
"95",
"100",
"89",
"75",
"84",
"76",
"92",
"99",
"108",
"106",
"105",
"104",
"101",
"82",
"120",
"116",
"87",
"123",
"144",
"129",
"167",
"152",
"153",
"140",
"144",
"169",
"159",
"157",
"175",
"169",
"187",
"178",
"163",
"166",
"188",
"157",
"215",
"160",
"176",
"201",
"196",
"194",
"236",
"202",
"242",
"204",
"177",
"168",
"193",
"180",
"209",
"244",
"265",
"238",
"224",
"188",
"173",
"178",
"181",
"134",
"165",
"163",
"175",
"160",
"189",
"163",
"184",
"176",
"189",
"170",
"191",
"185",
"196",
"184",
"163",
"176",
"169",
"168",
"165",
"168",
"177",
"164",
"168",
"180",
"168",
"159",
"163",
"175",
"159",
"182",
"154",
"146",
"151",
"167",
"175",
"144",
"146",
"171",
"155",
"153",
"181",
"173",
"129",
"167",
"167",
"170",
"147",
"173",
"170",
"157",
"168",
"154",
"169",
"160",
"157",
"152",
"145",
"137",
"171",
"129",
"139",
"151",
"153",
"143",
"146",
"146",
"127",
"111",
"128",
"140",
"124",
"132",
"144",
"122",
"137",
"127",
"127",
"123",
"125",
"118",
"127",
"111",
"127",
"112",
"107",
"121",
"107",
"96",
"110",
"144",
"111",
"119",
"113",
"125",
"143",
"120",
"118",
"106",
"106",
"100",
"115",
"89",
"108",
"106",
"120",
"99",
"118",
"94",
"101",
"91",
"104",
"101",
"108",
"103",
"105",
"94",
"128",
"115",
"105",
"144",
"107",
"87",
"79",
"108",
"115",
"135",
"115",
"117",
"120",
"105",
"134",
"130",
"151",
"157",
"167",
"155",
"225",
"260",
"321",
"417",
"518",
"694",
"699",
"747",
"729",
"686",
"529",
"400",
"352",
"263",
"180",
"166",
"181",
"173",
"259",
"326",
"348",
"296",
"199",
"140",
"108",
"101",
"50442",
"Channel_info_start",
"Channel : Mg",
"Points : 0",
"Range : 0.000000 - 0.000000",
"Step : 0.010000",
"Channel_info_end",
"Channel_info_start",
"Channel : Al",
"Points : 0",
"Range : 0.000000 - 0.000000",
"Step : 0.010000",
"Channel_info_end",
"Channel_info_start",
"Channel : Si",
"Points : 0",
"Range : 0.000000 - 0.000000",
"Step : 0.010000",
"Channel_info_end",
"Channel_info_start",
"Channel : P ",
"Points : 0",
"Range : 0.000000 - 0.000000",
"Step : 0.010000",
"Channel_info_end",
"Channel_info_start",
"Channel : S ",
"Points : 0",
"Range : 0.000000 - 0.000000",
"Step : 0.010000",
"Channel_info_end",
"Channel_info_start",
"Channel : Cl",
"Points : 0",
"Range : 0.000000 - 0.000000",
"Step : 0.010000",
"Channel_info_end",
"Channel_info_start",
"Channel : K ",
"Points : 0",
"Range : 0.000000 - 0.000000",
"Step : 0.010000",
"Channel_info_end",
"Channel_info_start",
"Channel : Ca",
"Points : 0",
"Range : 0.000000 - 0.000000",
"Step : 0.010000",
"Channel_info_end",
"Channel_info_start",
"Channel : Ti",
"Points : 0",
"Range : 0.000000 - 0.000000",
"Step : 0.010000",
"Channel_info_end",
"Channel_info_start",
"Channel : V ",
"Points : 0",
"Range : 0.000000 - 0.000000",
"Step : 0.010000",
"Channel_info_end",
"Channel_info_start",
"Channel : Cr",
"Points : 0",
"Range : 0.000000 - 0.000000",
"Step : 0.010000",
"Channel_info_end",
"Channel_info_start",
"Channel : Mn",
"Points : 0",
"Range : 0.000000 - 0.000000",
"Step : 0.010000",
"Channel_info_end",
"Channel_info_start",
"Channel : Fe",
"Points : 0",
"Range : 0.000000 - 0.000000",
"Step : 0.010000",
"Channel_info_end",
"Channel_info_start",
"Channel : Cu",
"Points : 0",
"Range : 0.000000 - 0.000000",
"Step : 0.010000",
"Channel_info_end",
"Channel_info_start",
"Channel : Zn",
"Points : 0",
"Range : 0.000000 - 0.000000",
"Step : 0.010000",
"Channel_info_end",
"Channel_info_start",
"Channel : Sr",
"Points : 0",
"Range : 0.000000 - 0.000000",
"Step : 0.010000",
"Channel_info_end",
"Channel_info_start",
"Channel : Pb",
"Points : 0",
"Range : 0.000000 - 0.000000",
"Step : 0.010000",
"Channel_info_end",
"",
"Qualitative Result",
"--------------------------------------------------------------------------------",
"Element :  P , Cl, K , Ca, Ru",
"",
"Peak List",
"--------------------------------------------------------------------------------",
"Channel               Line        keV     Net Int.(cps/uA)",
"--------------------------------------------------------------------------------",
"Na                    ----         0.87     0.020",
"                      ----         1.56     0.030",
"                      P Ka         2.01     0.015",
"                      ClKa         2.62     1.371",
"                      ClKb         2.84     0.112",
"                      K Ka         3.32     2.894",
"                      K Kb         3.61     0.392",
"                      CaKa         3.69     0.172",
"                      CaKb         4.01     0.024",
"                      RuKa        19.20     0.142",
"                      ----        19.41     0.075",
"                      ----        20.01     0.051",
"--------------------------------------------------------------------------------",
"",
"Quantitative Result",
"--------------------------------------------------------------------------------",
"Analyte               Result             Std.Dev. Proc.-Calc. Line Intensity(cps/uA)",
"--------------------------------------------------------------------------------",
"====[No. 1 Layer]====< Layer1               >===============================",
"Layer1                   0.000 ug/cm2    -------- Flux       -------- --------",