File: inputs/edxCalibration/edx_raw/2010-06/mg 15751.20100525200723.csv
"Sample    : mg 15751",
"Operator  : thiago",
"Comment  : cubatao-g-policarbonato",
"Group     : kerr2007ag180cal_lt",
"Date       : 2010-05-25 20:03:14",
"",
"Mesurement Condition",
"------------------------------------------------------------------------------------",
"Instrument : 700HS2   Atmosphere : Vac.   Collimator : 10(mm)   Spin : No",
"------------------------------------------------------------------------------------",
"Analyte               TG kV   uA      FI Acq.(keV)  Anal.(keV)  Time(sec)     DT(%)",
"------------------------------------------------------------------------------------",
"Na                    Rh 50  970-Auto Al  0 - 20    0.8 - 1.2   Live -  179   14",
"",
"<Profile>",
"Channel_info_start",
"Channel : Na",
"Points : 2048",
"Range : 0.000000 - 20.48",
"Step : 0.010000",
"Channel_info_end",
"0",
"0",
"0",
"0",
"1",
"46",
"44",
"29",
"51",
"46",
"53",
"40",
"37",
"48",
"51",
"65",
"95",
"832",
"1691",
"495",
"66",
"44",
"32",
"42",
"42",
"53",
"33",
"74",
"142",
"176",
"54",
"42",
"32",
"39",
"40",
"25",
"27",
"40",
"47",
"43",
"40",
"48",
"37",
"39",
"36",
"43",
"60",
"38",
"38",
"54",
"83",
"406",
"1555",
"2045",
"689",
"223",
"206",
"338",
"288",
"135",
"83",
"108",
"103",
"152",
"139",
"196",
"176",
"150",
"154",
"156",
"135",
"143",
"153",
"151",
"149",
"184",
"187",
"179",
"174",
"198",
"168",
"197",
"196",
"205",
"212",
"235",
"237",
"241",
"235",
"298",
"254",
"312",
"273",
"320",
"298",
"344",
"298",
"324",
"326",
"343",
"326",
"303",
"294",
"337",
"337",
"313",
"318",
"325",
"298",
"320",
"338",
"327",
"349",
"380",
"404",
"419",
"359",
"360",
"351",
"344",
"380",
"355",
"411",
"498",
"471",
"378",
"336",
"322",
"346",
"357",
"357",
"383",
"312",
"308",
"322",
"347",
"373",
"362",
"333",
"337",
"319",
"321",
"285",
"333",
"302",
"319",
"285",
"301",
"332",
"334",
"301",
"320",
"327",
"321",
"296",
"315",
"335",
"302",
"303",
"327",
"332",
"285",
"310",
"303",
"298",
"311",
"306",
"285",
"299",
"274",
"267",
"242",
"298",
"243",
"290",
"291",
"291",
"321",
"273",
"263",
"277",
"268",
"281",
"271",
"290",
"281",
"236",
"281",
"263",
"298",
"268",
"257",
"274",
"249",
"250",
"257",
"262",
"276",
"269",
"254",
"226",
"253",
"276",
"264",
"242",
"254",
"234",
"260",
"249",
"261",
"223",
"256",
"266",
"232",
"206",
"241",
"250",
"237",
"235",
"253",
"253",
"213",
"226",
"240",
"221",
"225",
"238",
"199",
"209",
"195",
"210",
"237",
"218",
"205",
"205",
"206",
"211",
"210",
"218",
"207",
"198",
"206",
"178",
"221",
"205",
"203",
"206",
"211",
"209",
"215",
"194",
"194",
"204",
"224",
"218",
"211",
"260",
"233",
"231",
"252",
"263",
"249",
"226",
"317",
"303",
"313",
"335",
"449",
"537",
"632",
"842",
"1093",
"1305",
"1448",
"1497",
"1317",
"1235",
"1043",
"818",
"630",
"491",
"399",
"336",
"311",
"336",
"441",
"523",
"532",
"529",
"332",
"280",
"211",
"199",
"99771",
"Channel_info_start",
"Channel : Mg",
"Points : 0",
"Range : 0.000000 - 0.000000",
"Step : 0.010000",
"Channel_info_end",
"Channel_info_start",
"Channel : Al",
"Points : 0",
"Range : 0.000000 - 0.000000",
"Step : 0.010000",
"Channel_info_end",
"Channel_info_start",
"Channel : Si",
"Points : 0",
"Range : 0.000000 - 0.000000",
"Step : 0.010000",
"Channel_info_end",
"Channel_info_start",
"Channel : P ",
"Points : 0",
"Range : 0.000000 - 0.000000",
"Step : 0.010000",
"Channel_info_end",
"Channel_info_start",
"Channel : S ",
"Points : 0",
"Range : 0.000000 - 0.000000",
"Step : 0.010000",
"Channel_info_end",
"Channel_info_start",
"Channel : Cl",
"Points : 0",
"Range : 0.000000 - 0.000000",
"Step : 0.010000",
"Channel_info_end",
"Channel_info_start",
"Channel : K ",
"Points : 0",
"Range : 0.000000 - 0.000000",
"Step : 0.010000",
"Channel_info_end",
"Channel_info_start",
"Channel : Ca",
"Points : 0",
"Range : 0.000000 - 0.000000",
"Step : 0.010000",
"Channel_info_end",
"Channel_info_start",
"Channel : Ti",
"Points : 0",
"Range : 0.000000 - 0.000000",
"Step : 0.010000",
"Channel_info_end",
"Channel_info_start",
"Channel : V ",
"Points : 0",
"Range : 0.000000 - 0.000000",
"Step : 0.010000",
"Channel_info_end",
"Channel_info_start",
"Channel : Cr",
"Points : 0",
"Range : 0.000000 - 0.000000",
"Step : 0.010000",
"Channel_info_end",
"Channel_info_start",
"Channel : Mn",
"Points : 0",
"Range : 0.000000 - 0.000000",
"Step : 0.010000",
"Channel_info_end",
"Channel_info_start",
"Channel : Fe",
"Points : 0",
"Range : 0.000000 - 0.000000",
"Step : 0.010000",
"Channel_info_end",
"Channel_info_start",
"Channel : Cu",
"Points : 0",
"Range : 0.000000 - 0.000000",
"Step : 0.010000",
"Channel_info_end",
"Channel_info_start",
"Channel : Zn",
"Points : 0",
"Range : 0.000000 - 0.000000",
"Step : 0.010000",
"Channel_info_end",
"Channel_info_start",
"Channel : Sr",
"Points : 0",
"Range : 0.000000 - 0.000000",
"Step : 0.010000",
"Channel_info_end",
"Channel_info_start",
"Channel : Pb",
"Points : 0",
"Range : 0.000000 - 0.000000",
"Step : 0.010000",
"Channel_info_end",
"",
"Qualitative Result",
"--------------------------------------------------------------------------------",
"Element :  Mg, P , Ca, Zn, Ru",
"",
"Peak List",
"--------------------------------------------------------------------------------",
"Channel               Line        keV     Net Int.(cps/uA)",
"--------------------------------------------------------------------------------",
"Na                    MgKa         1.26     0.110",
"                      P Ka         2.01     0.011",
"                      CaKa         3.68     0.168",
"                      CaKb         4.02     0.021",
"                      ZnKa         8.63     0.019",
"                      RuKa        19.17     0.137",
"                      ----        19.48     0.051",
"                      ----        20.01     0.033",
"--------------------------------------------------------------------------------",
"",
"Quantitative Result",
"--------------------------------------------------------------------------------",
"Analyte               Result             Std.Dev. Proc.-Calc. Line Intensity(cps/uA)",
"--------------------------------------------------------------------------------",
"====[No. 1 Layer]====< Layer1               >===============================",
"Layer1                   0.000 ug/cm2    -------- Flux       -------- --------",