File: inputs/edxCalibration/edx_raw/2010-06/mg 31491.20100525201132.csv
"Sample    : mg 31491",
"Operator  : thiago",
"Comment  : cubatao-g-policarbonato",
"Group     : kerr2007ag180cal_lt",
"Date       : 2010-05-25 20:07:22",
"",
"Mesurement Condition",
"------------------------------------------------------------------------------------",
"Instrument : 700HS2   Atmosphere : Vac.   Collimator : 10(mm)   Spin : No",
"------------------------------------------------------------------------------------",
"Analyte               TG kV   uA      FI Acq.(keV)  Anal.(keV)  Time(sec)     DT(%)",
"------------------------------------------------------------------------------------",
"Na                    Rh 50  970-Auto Al  0 - 20    0.8 - 1.2   Live -  179   14",
"",
"<Profile>",
"Channel_info_start",
"Channel : Na",
"Points : 2048",
"Range : 0.000000 - 20.48",
"Step : 0.010000",
"Channel_info_end",
"0",
"0",
"0",
"0",
"2",
"45",
"45",
"58",
"33",
"40",
"42",
"41",
"45",
"49",
"42",
"48",
"51",
"124",
"202",
"74",
"37",
"50",
"37",
"40",
"86",
"144",
"95",
"89",
"233",
"349",
"78",
"44",
"54",
"40",
"38",
"27",
"25",
"42",
"53",
"46",
"62",
"70",
"38",
"46",
"32",
"49",
"53",
"43",
"55",
"69",
"97",
"497",
"2527",
"3712",
"1154",
"240",
"258",
"533",
"371",
"165",
"76",
"93",
"133",
"150",
"163",
"199",
"178",
"177",
"154",
"157",
"127",
"159",
"133",
"140",
"126",
"151",
"170",
"184",
"178",
"215",
"187",
"218",
"181",
"223",
"196",
"207",
"214",
"230",
"244",
"227",
"252",
"314",
"309",
"295",
"300",
"282",
"321",
"339",
"282",
"318",
"325",
"344",
"328",
"307",
"313",
"313",
"307",
"308",
"312",
"289",
"314",
"327",
"334",
"381",
"519",
"800",
"1098",
"828",
"546",
"396",
"343",
"379",
"435",
"539",
"448",
"370",
"348",
"385",
"358",
"350",
"355",
"374",
"594",
"696",
"716",
"537",
"452",
"458",
"449",
"406",
"333",
"375",
"254",
"330",
"321",
"334",
"281",
"330",
"294",
"304",
"296",
"304",
"330",
"315",
"318",
"369",
"370",
"326",
"340",
"338",
"340",
"327",
"283",
"279",
"315",
"318",
"275",
"314",
"301",
"298",
"301",
"296",
"284",
"303",
"286",
"300",
"266",
"270",
"266",
"268",
"269",
"279",
"263",
"256",
"274",
"252",
"263",
"285",
"274",
"269",
"279",
"276",
"309",
"261",
"250",
"269",
"281",
"301",
"233",
"281",
"263",
"257",
"223",
"233",
"259",
"227",
"186",
"223",
"247",
"212",
"223",
"230",
"232",
"255",
"222",
"217",
"266",
"254",
"227",
"196",
"242",
"201",
"201",
"244",
"209",
"202",
"239",
"222",
"226",
"206",
"229",
"218",
"196",
"223",
"185",
"216",
"220",
"226",
"222",
"218",
"206",
"208",
"201",
"181",
"189",
"167",
"215",
"223",
"208",
"186",
"188",
"204",
"202",
"185",
"188",
"203",
"223",
"208",
"192",
"201",
"223",
"245",
"236",
"270",
"261",
"330",
"326",
"439",
"514",
"648",
"816",
"1067",
"1290",
"1367",
"1417",
"1396",
"1260",
"1001",
"753",
"613",
"493",
"347",
"309",
"333",
"360",
"426",
"511",
"583",
"521",
"375",
"230",
"196",
"187",
"97371",
"Channel_info_start",
"Channel : Mg",
"Points : 0",
"Range : 0.000000 - 0.000000",
"Step : 0.010000",
"Channel_info_end",
"Channel_info_start",
"Channel : Al",
"Points : 0",
"Range : 0.000000 - 0.000000",
"Step : 0.010000",
"Channel_info_end",
"Channel_info_start",
"Channel : Si",
"Points : 0",
"Range : 0.000000 - 0.000000",
"Step : 0.010000",
"Channel_info_end",
"Channel_info_start",
"Channel : P ",
"Points : 0",
"Range : 0.000000 - 0.000000",
"Step : 0.010000",
"Channel_info_end",
"Channel_info_start",
"Channel : S ",
"Points : 0",
"Range : 0.000000 - 0.000000",
"Step : 0.010000",
"Channel_info_end",
"Channel_info_start",
"Channel : Cl",
"Points : 0",
"Range : 0.000000 - 0.000000",
"Step : 0.010000",
"Channel_info_end",
"Channel_info_start",
"Channel : K ",
"Points : 0",
"Range : 0.000000 - 0.000000",
"Step : 0.010000",
"Channel_info_end",
"Channel_info_start",
"Channel : Ca",
"Points : 0",
"Range : 0.000000 - 0.000000",
"Step : 0.010000",
"Channel_info_end",
"Channel_info_start",
"Channel : Ti",
"Points : 0",
"Range : 0.000000 - 0.000000",
"Step : 0.010000",
"Channel_info_end",
"Channel_info_start",
"Channel : V ",
"Points : 0",
"Range : 0.000000 - 0.000000",
"Step : 0.010000",
"Channel_info_end",
"Channel_info_start",
"Channel : Cr",
"Points : 0",
"Range : 0.000000 - 0.000000",
"Step : 0.010000",
"Channel_info_end",
"Channel_info_start",
"Channel : Mn",
"Points : 0",
"Range : 0.000000 - 0.000000",
"Step : 0.010000",
"Channel_info_end",
"Channel_info_start",
"Channel : Fe",
"Points : 0",
"Range : 0.000000 - 0.000000",
"Step : 0.010000",
"Channel_info_end",
"Channel_info_start",
"Channel : Cu",
"Points : 0",
"Range : 0.000000 - 0.000000",
"Step : 0.010000",
"Channel_info_end",
"Channel_info_start",
"Channel : Zn",
"Points : 0",
"Range : 0.000000 - 0.000000",
"Step : 0.010000",
"Channel_info_end",
"Channel_info_start",
"Channel : Sr",
"Points : 0",
"Range : 0.000000 - 0.000000",
"Step : 0.010000",
"Channel_info_end",
"Channel_info_start",
"Channel : Pb",
"Points : 0",
"Range : 0.000000 - 0.000000",
"Step : 0.010000",
"Channel_info_end",
"",
"Qualitative Result",
"--------------------------------------------------------------------------------",
"Element :  Mg, Si, P , Ca, Zn, Ru",
"",
"Peak List",
"--------------------------------------------------------------------------------",
"Channel               Line        keV     Net Int.(cps/uA)",
"--------------------------------------------------------------------------------",
"Na                    MgKa         1.26     0.011",
"                      SiKa         1.74     0.007",
"                      P Ka         2.00     0.022",
"                      CaKa         3.68     0.296",
"                      CaKb         4.00     0.036",
"                      ----         4.58     0.009",
"                      ----         8.12     0.074",
"                      ZnKa         8.63     0.018",
"                      ----         9.35     0.037",
"                      ZnKb         9.60     0.014",
"                      RuKa        19.20     0.135",
"                      ----        19.48     0.047",
"--------------------------------------------------------------------------------",
"",
"Quantitative Result",
"--------------------------------------------------------------------------------",
"Analyte               Result             Std.Dev. Proc.-Calc. Line Intensity(cps/uA)",
"--------------------------------------------------------------------------------",
"====[No. 1 Layer]====< Layer1               >===============================",
"Layer1                   0.000 ug/cm2    -------- Flux       -------- --------",