File: inputs/edxCalibration/edx_raw/2010-06/MoO3 15764.20100626140033.csv
"Sample    : MoO3 15764",
"Operator  : thiago",
"Comment  : cubatao-g-policarbonato",
"Group     : kerr2007ag180cal_lt",
"Date       : 2010-06-26 13:54:34",
"",
"Mesurement Condition",
"------------------------------------------------------------------------------------",
"Instrument : 700HS2   Atmosphere : Vac.   Collimator : 10(mm)   Spin : No",
"------------------------------------------------------------------------------------",
"Analyte               TG kV   uA      FI Acq.(keV)  Anal.(keV)  Time(sec)     DT(%)",
"------------------------------------------------------------------------------------",
"Na                    Rh 50  210-Auto Al  0 - 20    0.8 - 1.2   Live -  179   14",
"",
"<Profile>",
"Channel_info_start",
"Channel : Na",
"Points : 2048",
"Range : 0.000000 - 20.48",
"Step : 0.010000",
"Channel_info_end",
"0",
"0",
"0",
"0",
"0",
"44",
"43",
"55",
"82",
"83",
"51",
"43",
"37",
"43",
"59",
"57",
"53",
"51",
"44",
"34",
"37",
"40",
"30",
"40",
"48",
"42",
"55",
"85",
"175",
"264",
"180",
"243",
"1341",
"2791",
"1736",
"1082",
"428",
"169",
"73",
"53",
"75",
"52",
"22",
"19",
"22",
"22",
"19",
"22",
"22",
"22",
"27",
"98",
"302",
"456",
"157",
"70",
"28",
"84",
"66",
"52",
"28",
"22",
"32",
"33",
"47",
"55",
"53",
"58",
"46",
"36",
"42",
"47",
"43",
"61",
"36",
"51",
"43",
"57",
"33",
"31",
"59",
"67",
"53",
"63",
"51",
"65",
"69",
"57",
"70",
"71",
"71",
"81",
"93",
"97",
"85",
"85",
"82",
"85",
"76",
"81",
"85",
"99",
"84",
"84",
"89",
"88",
"76",
"86",
"95",
"86",
"74",
"91",
"79",
"96",
"95",
"110",
"98",
"93",
"77",
"101",
"90",
"82",
"105",
"124",
"114",
"107",
"86",
"99",
"98",
"77",
"63",
"88",
"81",
"81",
"71",
"84",
"96",
"98",
"73",
"85",
"100",
"99",
"79",
"98",
"93",
"80",
"75",
"79",
"94",
"69",
"95",
"91",
"77",
"82",
"95",
"83",
"84",
"96",
"77",
"74",
"81",
"69",
"80",
"71",
"77",
"65",
"71",
"87",
"82",
"70",
"65",
"72",
"83",
"82",
"86",
"81",
"69",
"79",
"86",
"74",
"81",
"69",
"75",
"53",
"66",
"85",
"69",
"80",
"74",
"79",
"56",
"73",
"91",
"55",
"62",
"51",
"60",
"77",
"68",
"72",
"66",
"63",
"58",
"82",
"52",
"66",
"77",
"63",
"56",
"55",
"49",
"56",
"66",
"55",
"60",
"53",
"56",
"59",
"60",
"56",
"55",
"67",
"56",
"51",
"63",
"70",
"65",
"73",
"66",
"52",
"61",
"61",
"65",
"71",
"71",
"71",
"74",
"74",
"66",
"98",
"87",
"103",
"111",
"169",
"324",
"946",
"2750",
"6204",
"10197",
"11983",
"10456",
"7048",
"3254",
"1002",
"285",
"113",
"88",
"69",
"58",
"69",
"80",
"60",
"62",
"67",
"85",
"90",
"88",
"110",
"136",
"146",
"193",
"231",
"299",
"296",
"359",
"367",
"459",
"814",
"1353",
"2007",
"2157",
"1681",
"1048",
"659",
"519",
"446",
"372",
"275",
"172",
"116",
"73",
"38",
"31",
"22361",
"Channel_info_start",
"Channel : Mg",
"Points : 0",
"Range : 0.000000 - 0.000000",
"Step : 0.010000",
"Channel_info_end",
"Channel_info_start",
"Channel : Al",
"Points : 0",
"Range : 0.000000 - 0.000000",
"Step : 0.010000",
"Channel_info_end",
"Channel_info_start",
"Channel : Si",
"Points : 0",
"Range : 0.000000 - 0.000000",
"Step : 0.010000",
"Channel_info_end",
"Channel_info_start",
"Channel : P ",
"Points : 0",
"Range : 0.000000 - 0.000000",
"Step : 0.010000",
"Channel_info_end",
"Channel_info_start",
"Channel : S ",
"Points : 0",
"Range : 0.000000 - 0.000000",
"Step : 0.010000",
"Channel_info_end",
"Channel_info_start",
"Channel : Cl",
"Points : 0",
"Range : 0.000000 - 0.000000",
"Step : 0.010000",
"Channel_info_end",
"Channel_info_start",
"Channel : K ",
"Points : 0",
"Range : 0.000000 - 0.000000",
"Step : 0.010000",
"Channel_info_end",
"Channel_info_start",
"Channel : Ca",
"Points : 0",
"Range : 0.000000 - 0.000000",
"Step : 0.010000",
"Channel_info_end",
"Channel_info_start",
"Channel : Ti",
"Points : 0",
"Range : 0.000000 - 0.000000",
"Step : 0.010000",
"Channel_info_end",
"Channel_info_start",
"Channel : V ",
"Points : 0",
"Range : 0.000000 - 0.000000",
"Step : 0.010000",
"Channel_info_end",
"Channel_info_start",
"Channel : Cr",
"Points : 0",
"Range : 0.000000 - 0.000000",
"Step : 0.010000",
"Channel_info_end",
"Channel_info_start",
"Channel : Mn",
"Points : 0",
"Range : 0.000000 - 0.000000",
"Step : 0.010000",
"Channel_info_end",
"Channel_info_start",
"Channel : Fe",
"Points : 0",
"Range : 0.000000 - 0.000000",
"Step : 0.010000",
"Channel_info_end",
"Channel_info_start",
"Channel : Cu",
"Points : 0",
"Range : 0.000000 - 0.000000",
"Step : 0.010000",
"Channel_info_end",
"Channel_info_start",
"Channel : Zn",
"Points : 0",
"Range : 0.000000 - 0.000000",
"Step : 0.010000",
"Channel_info_end",
"Channel_info_start",
"Channel : Sr",
"Points : 0",
"Range : 0.000000 - 0.000000",
"Step : 0.010000",
"Channel_info_end",
"Channel_info_start",
"Channel : Pb",
"Points : 0",
"Range : 0.000000 - 0.000000",
"Step : 0.010000",
"Channel_info_end",
"",
"Qualitative Result",
"--------------------------------------------------------------------------------",
"Element :  P , Mo, Ca",
"",
"Peak List",
"--------------------------------------------------------------------------------",
"Channel               Line        keV     Net Int.(cps/uA)",
"--------------------------------------------------------------------------------",
"Na                    ----         0.55     0.012",
"                      P Ka         2.02     0.061",
"                      MoLa         2.30     0.859",
"                      ----         2.43     0.394",
"                      CaKa         3.70     0.163",
"                      CaKb         4.00     0.020",
"                      MoKa        17.44     6.931",
"                      MoKb        19.57     1.109",
"                      ----        19.91     0.165",
"--------------------------------------------------------------------------------",
"",
"Quantitative Result",
"--------------------------------------------------------------------------------",
"Analyte               Result             Std.Dev. Proc.-Calc. Line Intensity(cps/uA)",
"--------------------------------------------------------------------------------",
"====[No. 1 Layer]====< Layer1               >===============================",
"Layer1                   0.000 ug/cm2    -------- Flux       -------- --------",