File: inputs/edxCalibration/edx_raw/2010-06/MoO3 31507.20100525234940.csv
"Sample    : MoO3 31507",
"Operator  : luisf",
"Comment  : cubatao-g-policarbonato",
"Group     : kerr2007ag180cal_lt",
"Date       : 2010-05-25 23:45:36",
"",
"Mesurement Condition",
"------------------------------------------------------------------------------------",
"Instrument : 700HS2   Atmosphere : Vac.   Collimator : 10(mm)   Spin : No",
"------------------------------------------------------------------------------------",
"Analyte               TG kV   uA      FI Acq.(keV)  Anal.(keV)  Time(sec)     DT(%)",
"------------------------------------------------------------------------------------",
"Na                    Rh 50  210-Auto Al  0 - 20    0.8 - 1.2   Live -  179   14",
"",
"<Profile>",
"Channel_info_start",
"Channel : Na",
"Points : 2048",
"Range : 0.000000 - 20.48",
"Step : 0.010000",
"Channel_info_end",
"0",
"0",
"0",
"0",
"0",
"33",
"39",
"52",
"66",
"60",
"48",
"52",
"44",
"39",
"50",
"62",
"53",
"51",
"33",
"41",
"32",
"34",
"29",
"23",
"30",
"39",
"42",
"68",
"151",
"218",
"120",
"197",
"1076",
"2088",
"1300",
"802",
"285",
"115",
"71",
"40",
"54",
"55",
"26",
"19",
"18",
"24",
"19",
"25",
"19",
"29",
"34",
"123",
"592",
"813",
"259",
"65",
"57",
"131",
"90",
"54",
"32",
"25",
"28",
"39",
"42",
"53",
"51",
"61",
"59",
"39",
"43",
"51",
"45",
"41",
"52",
"56",
"46",
"48",
"51",
"69",
"59",
"51",
"78",
"72",
"82",
"55",
"61",
"88",
"75",
"72",
"86",
"72",
"95",
"76",
"62",
"106",
"90",
"101",
"85",
"88",
"92",
"87",
"78",
"68",
"83",
"92",
"76",
"86",
"98",
"79",
"79",
"68",
"98",
"106",
"113",
"116",
"107",
"94",
"114",
"107",
"83",
"107",
"110",
"143",
"127",
"115",
"72",
"88",
"112",
"92",
"81",
"89",
"96",
"82",
"82",
"114",
"99",
"95",
"96",
"87",
"78",
"75",
"84",
"95",
"71",
"92",
"88",
"101",
"88",
"76",
"82",
"98",
"86",
"76",
"76",
"74",
"70",
"76",
"76",
"92",
"79",
"73",
"71",
"86",
"69",
"88",
"64",
"95",
"78",
"95",
"60",
"75",
"62",
"62",
"69",
"79",
"58",
"65",
"81",
"73",
"80",
"56",
"66",
"81",
"79",
"73",
"57",
"62",
"67",
"70",
"64",
"80",
"74",
"73",
"68",
"81",
"78",
"83",
"78",
"60",
"58",
"74",
"59",
"64",
"56",
"66",
"78",
"51",
"60",
"92",
"54",
"62",
"70",
"55",
"52",
"65",
"57",
"52",
"74",
"68",
"60",
"72",
"60",
"78",
"57",
"61",
"57",
"69",
"61",
"57",
"65",
"75",
"60",
"61",
"55",
"75",
"57",
"67",
"58",
"92",
"70",
"104",
"118",
"153",
"360",
"1221",
"3249",
"7138",
"10927",
"12499",
"10321",
"6620",
"2796",
"896",
"233",
"83",
"75",
"67",
"55",
"59",
"68",
"62",
"72",
"64",
"76",
"78",
"88",
"115",
"122",
"169",
"174",
"257",
"294",
"312",
"347",
"375",
"503",
"948",
"1549",
"2154",
"2130",
"1740",
"928",
"643",
"491",
"442",
"341",
"240",
"168",
"92",
"62",
"56",
"39",
"22552",
"Channel_info_start",
"Channel : Mg",
"Points : 0",
"Range : 0.000000 - 0.000000",
"Step : 0.010000",
"Channel_info_end",
"Channel_info_start",
"Channel : Al",
"Points : 0",
"Range : 0.000000 - 0.000000",
"Step : 0.010000",
"Channel_info_end",
"Channel_info_start",
"Channel : Si",
"Points : 0",
"Range : 0.000000 - 0.000000",
"Step : 0.010000",
"Channel_info_end",
"Channel_info_start",
"Channel : P ",
"Points : 0",
"Range : 0.000000 - 0.000000",
"Step : 0.010000",
"Channel_info_end",
"Channel_info_start",
"Channel : S ",
"Points : 0",
"Range : 0.000000 - 0.000000",
"Step : 0.010000",
"Channel_info_end",
"Channel_info_start",
"Channel : Cl",
"Points : 0",
"Range : 0.000000 - 0.000000",
"Step : 0.010000",
"Channel_info_end",
"Channel_info_start",
"Channel : K ",
"Points : 0",
"Range : 0.000000 - 0.000000",
"Step : 0.010000",
"Channel_info_end",
"Channel_info_start",
"Channel : Ca",
"Points : 0",
"Range : 0.000000 - 0.000000",
"Step : 0.010000",
"Channel_info_end",
"Channel_info_start",
"Channel : Ti",
"Points : 0",
"Range : 0.000000 - 0.000000",
"Step : 0.010000",
"Channel_info_end",
"Channel_info_start",
"Channel : V ",
"Points : 0",
"Range : 0.000000 - 0.000000",
"Step : 0.010000",
"Channel_info_end",
"Channel_info_start",
"Channel : Cr",
"Points : 0",
"Range : 0.000000 - 0.000000",
"Step : 0.010000",
"Channel_info_end",
"Channel_info_start",
"Channel : Mn",
"Points : 0",
"Range : 0.000000 - 0.000000",
"Step : 0.010000",
"Channel_info_end",
"Channel_info_start",
"Channel : Fe",
"Points : 0",
"Range : 0.000000 - 0.000000",
"Step : 0.010000",
"Channel_info_end",
"Channel_info_start",
"Channel : Cu",
"Points : 0",
"Range : 0.000000 - 0.000000",
"Step : 0.010000",
"Channel_info_end",
"Channel_info_start",
"Channel : Zn",
"Points : 0",
"Range : 0.000000 - 0.000000",
"Step : 0.010000",
"Channel_info_end",
"Channel_info_start",
"Channel : Sr",
"Points : 0",
"Range : 0.000000 - 0.000000",
"Step : 0.010000",
"Channel_info_end",
"Channel_info_start",
"Channel : Pb",
"Points : 0",
"Range : 0.000000 - 0.000000",
"Step : 0.010000",
"Channel_info_end",
"",
"Qualitative Result",
"--------------------------------------------------------------------------------",
"Element :  P , S , Ca",
"",
"Peak List",
"--------------------------------------------------------------------------------",
"Channel               Line        keV     Net Int.(cps/uA)",
"--------------------------------------------------------------------------------",
"Na                    P Ka         2.02     0.051",
"                      S Ka         2.30     0.652",
"                      S Kb         2.43     0.299",
"                      CaKa         3.68     0.300",
"                      CaKb         4.02     0.037",
"                      ----        17.42     7.161",
"--------------------------------------------------------------------------------",
"",
"Quantitative Result",
"--------------------------------------------------------------------------------",
"Analyte               Result             Std.Dev. Proc.-Calc. Line Intensity(cps/uA)",
"--------------------------------------------------------------------------------",
"====[No. 1 Layer]====< Layer1               >===============================",
"Layer1                   0.000 ug/cm2    -------- Flux       -------- --------",