File: inputs/edxCalibration/edx_raw/2010-06/MoO3 31507.20100611022704.csv
"Sample    : MoO3 31507",
"Operator  : Luís",
"Comment  : cubatao-g-policarbonato",
"Group     : kerr2007ag180cal_lt",
"Date       : 2010-06-11 02:23:01",
"",
"Mesurement Condition",
"------------------------------------------------------------------------------------",
"Instrument : 700HS2   Atmosphere : Vac.   Collimator : 10(mm)   Spin : No",
"------------------------------------------------------------------------------------",
"Analyte               TG kV   uA      FI Acq.(keV)  Anal.(keV)  Time(sec)     DT(%)",
"------------------------------------------------------------------------------------",
"Na                    Rh 50  210-Auto Al  0 - 20    0.8 - 1.2   Live -  180   14",
"",
"<Profile>",
"Channel_info_start",
"Channel : Na",
"Points : 2048",
"Range : 0.000000 - 20.48",
"Step : 0.010000",
"Channel_info_end",
"0",
"0",
"0",
"0",
"0",
"36",
"37",
"57",
"72",
"58",
"60",
"42",
"33",
"69",
"41",
"63",
"47",
"51",
"31",
"40",
"40",
"26",
"41",
"25",
"33",
"41",
"34",
"61",
"156",
"241",
"143",
"215",
"1098",
"2120",
"1310",
"815",
"305",
"120",
"67",
"49",
"42",
"46",
"43",
"18",
"23",
"18",
"15",
"16",
"26",
"15",
"32",
"136",
"594",
"853",
"245",
"60",
"68",
"112",
"101",
"44",
"27",
"46",
"38",
"47",
"49",
"53",
"58",
"84",
"51",
"47",
"39",
"55",
"38",
"46",
"50",
"60",
"49",
"55",
"57",
"60",
"64",
"49",
"60",
"59",
"56",
"58",
"63",
"73",
"75",
"95",
"77",
"107",
"78",
"86",
"81",
"108",
"75",
"85",
"75",
"70",
"83",
"117",
"84",
"84",
"94",
"85",
"91",
"74",
"91",
"91",
"70",
"103",
"108",
"110",
"101",
"121",
"101",
"91",
"71",
"91",
"95",
"116",
"120",
"142",
"140",
"99",
"87",
"96",
"91",
"96",
"98",
"88",
"85",
"111",
"92",
"113",
"68",
"78",
"99",
"91",
"64",
"97",
"78",
"75",
"94",
"84",
"81",
"73",
"69",
"91",
"85",
"109",
"87",
"99",
"93",
"94",
"96",
"91",
"78",
"77",
"82",
"78",
"71",
"81",
"70",
"81",
"103",
"80",
"70",
"82",
"87",
"73",
"79",
"66",
"83",
"83",
"85",
"64",
"71",
"68",
"77",
"67",
"84",
"65",
"80",
"73",
"71",
"63",
"72",
"67",
"71",
"81",
"65",
"60",
"58",
"67",
"73",
"72",
"61",
"77",
"65",
"66",
"67",
"63",
"87",
"70",
"66",
"65",
"67",
"71",
"57",
"55",
"55",
"69",
"67",
"59",
"66",
"70",
"61",
"75",
"60",
"59",
"65",
"78",
"59",
"81",
"70",
"59",
"66",
"67",
"71",
"80",
"69",
"68",
"82",
"83",
"102",
"78",
"81",
"89",
"86",
"91",
"121",
"164",
"423",
"1346",
"3584",
"7694",
"11473",
"12753",
"9957",
"6065",
"2599",
"746",
"209",
"78",
"68",
"69",
"72",
"72",
"66",
"71",
"64",
"77",
"84",
"94",
"86",
"116",
"134",
"167",
"206",
"262",
"314",
"331",
"341",
"423",
"556",
"1016",
"1610",
"2217",
"2229",
"1604",
"924",
"587",
"512",
"391",
"384",
"226",
"157",
"74",
"65",
"51",
"40",
"23293",
"Channel_info_start",
"Channel : Mg",
"Points : 0",
"Range : 0.000000 - 0.000000",
"Step : 0.010000",
"Channel_info_end",
"Channel_info_start",
"Channel : Al",
"Points : 0",
"Range : 0.000000 - 0.000000",
"Step : 0.010000",
"Channel_info_end",
"Channel_info_start",
"Channel : Si",
"Points : 0",
"Range : 0.000000 - 0.000000",
"Step : 0.010000",
"Channel_info_end",
"Channel_info_start",
"Channel : P ",
"Points : 0",
"Range : 0.000000 - 0.000000",
"Step : 0.010000",
"Channel_info_end",
"Channel_info_start",
"Channel : S ",
"Points : 0",
"Range : 0.000000 - 0.000000",
"Step : 0.010000",
"Channel_info_end",
"Channel_info_start",
"Channel : Cl",
"Points : 0",
"Range : 0.000000 - 0.000000",
"Step : 0.010000",
"Channel_info_end",
"Channel_info_start",
"Channel : K ",
"Points : 0",
"Range : 0.000000 - 0.000000",
"Step : 0.010000",
"Channel_info_end",
"Channel_info_start",
"Channel : Ca",
"Points : 0",
"Range : 0.000000 - 0.000000",
"Step : 0.010000",
"Channel_info_end",
"Channel_info_start",
"Channel : Ti",
"Points : 0",
"Range : 0.000000 - 0.000000",
"Step : 0.010000",
"Channel_info_end",
"Channel_info_start",
"Channel : V ",
"Points : 0",
"Range : 0.000000 - 0.000000",
"Step : 0.010000",
"Channel_info_end",
"Channel_info_start",
"Channel : Cr",
"Points : 0",
"Range : 0.000000 - 0.000000",
"Step : 0.010000",
"Channel_info_end",
"Channel_info_start",
"Channel : Mn",
"Points : 0",
"Range : 0.000000 - 0.000000",
"Step : 0.010000",
"Channel_info_end",
"Channel_info_start",
"Channel : Fe",
"Points : 0",
"Range : 0.000000 - 0.000000",
"Step : 0.010000",
"Channel_info_end",
"Channel_info_start",
"Channel : Cu",
"Points : 0",
"Range : 0.000000 - 0.000000",
"Step : 0.010000",
"Channel_info_end",
"Channel_info_start",
"Channel : Zn",
"Points : 0",
"Range : 0.000000 - 0.000000",
"Step : 0.010000",
"Channel_info_end",
"Channel_info_start",
"Channel : Sr",
"Points : 0",
"Range : 0.000000 - 0.000000",
"Step : 0.010000",
"Channel_info_end",
"Channel_info_start",
"Channel : Pb",
"Points : 0",
"Range : 0.000000 - 0.000000",
"Step : 0.010000",
"Channel_info_end",
"",
"Qualitative Result",
"--------------------------------------------------------------------------------",
"Element :  P , Mo, Ca",
"",
"Peak List",
"--------------------------------------------------------------------------------",
"Channel               Line        keV     Net Int.(cps/uA)",
"--------------------------------------------------------------------------------",
"Na                    P Ka         2.02     0.055",
"                      MoLa         2.30     0.664",
"                      ----         2.43     0.288",
"                      CaKa         3.70     0.304",
"                      CaKb         4.02     0.042",
"                      MoKa        17.43     7.170",
"                      MoKb        19.57     1.200",
"                      ----        20.01     0.114",
"--------------------------------------------------------------------------------",
"",
"Quantitative Result",
"--------------------------------------------------------------------------------",
"Analyte               Result             Std.Dev. Proc.-Calc. Line Intensity(cps/uA)",
"--------------------------------------------------------------------------------",
"====[No. 1 Layer]====< Layer1               >===============================",
"Layer1                   0.000 ug/cm2    -------- Flux       -------- --------",