File: inputs/edxCalibration/edx_raw/2010-06/nacl 15750.20100525200315.csv
"Sample    : nacl 15750",
"Operator  : thiago",
"Comment  : cubatao-g-policarbonato",
"Group     : kerr2007ag180cal_lt",
"Date       : 2010-05-25 19:57:05",
"",
"Mesurement Condition",
"------------------------------------------------------------------------------------",
"Instrument : 700HS2   Atmosphere : Vac.   Collimator : 10(mm)   Spin : No",
"------------------------------------------------------------------------------------",
"Analyte               TG kV   uA      FI Acq.(keV)  Anal.(keV)  Time(sec)     DT(%)",
"------------------------------------------------------------------------------------",
"Na                    Rh 50  802-Auto Al  0 - 20    0.8 - 1.2   Live -  180   15",
"",
"<Profile>",
"Channel_info_start",
"Channel : Na",
"Points : 2048",
"Range : 0.000000 - 20.48",
"Step : 0.010000",
"Channel_info_end",
"0",
"0",
"0",
"0",
"1",
"35",
"36",
"48",
"42",
"54",
"52",
"74",
"216",
"213",
"160",
"271",
"103",
"63",
"48",
"58",
"43",
"61",
"43",
"45",
"42",
"61",
"70",
"79",
"165",
"224",
"121",
"151",
"192",
"270",
"315",
"381",
"2199",
"11826",
"10893",
"2190",
"1327",
"888",
"136",
"43",
"33",
"36",
"38",
"41",
"46",
"51",
"72",
"338",
"1325",
"1710",
"565",
"167",
"173",
"291",
"226",
"98",
"93",
"75",
"89",
"111",
"152",
"160",
"129",
"140",
"122",
"112",
"87",
"116",
"110",
"121",
"125",
"122",
"164",
"164",
"158",
"160",
"154",
"170",
"133",
"146",
"173",
"200",
"221",
"209",
"221",
"221",
"223",
"250",
"246",
"226",
"280",
"261",
"286",
"284",
"286",
"264",
"249",
"252",
"228",
"245",
"259",
"253",
"270",
"258",
"250",
"249",
"261",
"291",
"316",
"319",
"338",
"315",
"354",
"282",
"265",
"284",
"289",
"367",
"414",
"543",
"441",
"367",
"274",
"292",
"302",
"275",
"255",
"304",
"250",
"238",
"278",
"297",
"302",
"291",
"273",
"280",
"237",
"303",
"265",
"303",
"266",
"290",
"296",
"292",
"263",
"275",
"265",
"277",
"261",
"283",
"228",
"272",
"261",
"267",
"269",
"271",
"257",
"284",
"225",
"262",
"264",
"261",
"249",
"245",
"251",
"303",
"242",
"257",
"220",
"238",
"234",
"254",
"252",
"228",
"240",
"232",
"249",
"264",
"244",
"244",
"241",
"245",
"226",
"252",
"240",
"238",
"199",
"247",
"223",
"201",
"212",
"209",
"214",
"202",
"232",
"244",
"215",
"213",
"214",
"242",
"234",
"219",
"189",
"212",
"225",
"200",
"190",
"201",
"212",
"190",
"186",
"201",
"190",
"209",
"194",
"188",
"183",
"199",
"172",
"185",
"162",
"182",
"198",
"166",
"163",
"175",
"153",
"183",
"203",
"191",
"166",
"164",
"189",
"178",
"155",
"152",
"184",
"179",
"158",
"172",
"161",
"175",
"179",
"190",
"155",
"186",
"170",
"175",
"169",
"184",
"162",
"194",
"221",
"154",
"155",
"183",
"202",
"178",
"182",
"233",
"250",
"261",
"269",
"325",
"452",
"528",
"681",
"927",
"1160",
"1062",
"1161",
"1160",
"1026",
"875",
"638",
"533",
"417",
"346",
"244",
"277",
"290",
"398",
"475",
"449",
"432",
"295",
"213",
"170",
"150",
"83000",
"Channel_info_start",
"Channel : Mg",
"Points : 0",
"Range : 0.000000 - 0.000000",
"Step : 0.010000",
"Channel_info_end",
"Channel_info_start",
"Channel : Al",
"Points : 0",
"Range : 0.000000 - 0.000000",
"Step : 0.010000",
"Channel_info_end",
"Channel_info_start",
"Channel : Si",
"Points : 0",
"Range : 0.000000 - 0.000000",
"Step : 0.010000",
"Channel_info_end",
"Channel_info_start",
"Channel : P ",
"Points : 0",
"Range : 0.000000 - 0.000000",
"Step : 0.010000",
"Channel_info_end",
"Channel_info_start",
"Channel : S ",
"Points : 0",
"Range : 0.000000 - 0.000000",
"Step : 0.010000",
"Channel_info_end",
"Channel_info_start",
"Channel : Cl",
"Points : 0",
"Range : 0.000000 - 0.000000",
"Step : 0.010000",
"Channel_info_end",
"Channel_info_start",
"Channel : K ",
"Points : 0",
"Range : 0.000000 - 0.000000",
"Step : 0.010000",
"Channel_info_end",
"Channel_info_start",
"Channel : Ca",
"Points : 0",
"Range : 0.000000 - 0.000000",
"Step : 0.010000",
"Channel_info_end",
"Channel_info_start",
"Channel : Ti",
"Points : 0",
"Range : 0.000000 - 0.000000",
"Step : 0.010000",
"Channel_info_end",
"Channel_info_start",
"Channel : V ",
"Points : 0",
"Range : 0.000000 - 0.000000",
"Step : 0.010000",
"Channel_info_end",
"Channel_info_start",
"Channel : Cr",
"Points : 0",
"Range : 0.000000 - 0.000000",
"Step : 0.010000",
"Channel_info_end",
"Channel_info_start",
"Channel : Mn",
"Points : 0",
"Range : 0.000000 - 0.000000",
"Step : 0.010000",
"Channel_info_end",
"Channel_info_start",
"Channel : Fe",
"Points : 0",
"Range : 0.000000 - 0.000000",
"Step : 0.010000",
"Channel_info_end",
"Channel_info_start",
"Channel : Cu",
"Points : 0",
"Range : 0.000000 - 0.000000",
"Step : 0.010000",
"Channel_info_end",
"Channel_info_start",
"Channel : Zn",
"Points : 0",
"Range : 0.000000 - 0.000000",
"Step : 0.010000",
"Channel_info_end",
"Channel_info_start",
"Channel : Sr",
"Points : 0",
"Range : 0.000000 - 0.000000",
"Step : 0.010000",
"Channel_info_end",
"Channel_info_start",
"Channel : Pb",
"Points : 0",
"Range : 0.000000 - 0.000000",
"Step : 0.010000",
"Channel_info_end",
"",
"Qualitative Result",
"--------------------------------------------------------------------------------",
"Element :  Zn, P , S , Cl, Ca, Rh",
"",
"Peak List",
"--------------------------------------------------------------------------------",
"Channel               Line        keV     Net Int.(cps/uA)",
"--------------------------------------------------------------------------------",
"Na                    ZnLL         0.88     0.017",
"                      ZnLb1        1.03     0.005",
"                      ZnLa         1.06     0.016",
"                      P Ka         2.00     0.011",
"                      S Ka         2.30     0.012",
"                      ClKa         2.62     1.237",
"                      ClKb         2.84     0.103",
"                      CaKa         3.68     0.168",
"                      CaKb         4.00     0.021",
"                      ZnKa         8.61     0.029",
"                      RhKaC       19.15     0.139",
"                      ----        19.42     0.067",
"                      RhKa        20.05     0.043",
"--------------------------------------------------------------------------------",
"",
"Quantitative Result",
"--------------------------------------------------------------------------------",
"Analyte               Result             Std.Dev. Proc.-Calc. Line Intensity(cps/uA)",
"--------------------------------------------------------------------------------",
"====[No. 1 Layer]====< Layer1               >===============================",
"Layer1                   0.000 ug/cm2    -------- Flux       -------- --------",