File: inputs/edxCalibration/edx_raw/2010-06/Nb2O3 15763.20100611021902.csv
"Sample    : Nb2O3 15763",
"Operator  : Luís",
"Comment  : cubatao-g-policarbonato",
"Group     : kerr2007ag180cal_lt",
"Date       : 2010-06-11 02:14:59",
"",
"Mesurement Condition",
"------------------------------------------------------------------------------------",
"Instrument : 700HS2   Atmosphere : Vac.   Collimator : 10(mm)   Spin : No",
"------------------------------------------------------------------------------------",
"Analyte               TG kV   uA      FI Acq.(keV)  Anal.(keV)  Time(sec)     DT(%)",
"------------------------------------------------------------------------------------",
"Na                    Rh 50  210-Auto Al  0 - 20    0.8 - 1.2   Live -  179   14",
"",
"<Profile>",
"Channel_info_start",
"Channel : Na",
"Points : 2048",
"Range : 0.000000 - 20.48",
"Step : 0.010000",
"Channel_info_end",
"0",
"0",
"0",
"0",
"0",
"56",
"78",
"67",
"48",
"55",
"48",
"45",
"41",
"52",
"41",
"38",
"42",
"37",
"28",
"27",
"31",
"28",
"25",
"34",
"50",
"73",
"100",
"197",
"221",
"241",
"933",
"2552",
"1783",
"1012",
"340",
"106",
"57",
"33",
"75",
"54",
"32",
"23",
"18",
"18",
"26",
"14",
"20",
"12",
"15",
"19",
"30",
"74",
"320",
"464",
"136",
"51",
"45",
"85",
"56",
"36",
"23",
"32",
"45",
"34",
"47",
"54",
"57",
"53",
"42",
"40",
"33",
"46",
"39",
"45",
"30",
"48",
"54",
"64",
"52",
"51",
"33",
"52",
"46",
"70",
"65",
"64",
"59",
"72",
"66",
"69",
"64",
"85",
"69",
"86",
"64",
"83",
"79",
"89",
"101",
"87",
"79",
"98",
"87",
"85",
"78",
"73",
"85",
"86",
"80",
"92",
"98",
"78",
"90",
"107",
"95",
"124",
"90",
"86",
"76",
"80",
"93",
"100",
"116",
"138",
"117",
"124",
"83",
"111",
"96",
"84",
"79",
"89",
"94",
"82",
"88",
"98",
"115",
"80",
"97",
"79",
"90",
"100",
"80",
"74",
"59",
"102",
"86",
"80",
"78",
"92",
"69",
"70",
"80",
"83",
"70",
"92",
"78",
"76",
"73",
"95",
"78",
"89",
"73",
"87",
"83",
"78",
"71",
"68",
"84",
"78",
"89",
"72",
"76",
"81",
"84",
"62",
"70",
"75",
"69",
"65",
"84",
"59",
"61",
"82",
"67",
"69",
"68",
"87",
"70",
"69",
"78",
"81",
"66",
"54",
"92",
"75",
"69",
"66",
"68",
"71",
"73",
"71",
"70",
"66",
"72",
"57",
"71",
"55",
"64",
"61",
"61",
"66",
"68",
"61",
"56",
"76",
"71",
"78",
"53",
"67",
"67",
"60",
"71",
"95",
"71",
"76",
"76",
"90",
"87",
"104",
"107",
"175",
"476",
"1483",
"4184",
"8783",
"12186",
"12631",
"8755",
"4880",
"1569",
"430",
"135",
"89",
"80",
"70",
"66",
"54",
"72",
"56",
"51",
"70",
"59",
"67",
"54",
"64",
"78",
"81",
"65",
"81",
"88",
"131",
"281",
"811",
"1487",
"2066",
"2076",
"1685",
"1007",
"694",
"568",
"586",
"501",
"391",
"324",
"327",
"261",
"258",
"139",
"135",
"104",
"87",
"66",
"64",
"70",
"115",
"127",
"144",
"120",
"84",
"72",
"43",
"51",
"22757",
"Channel_info_start",
"Channel : Mg",
"Points : 0",
"Range : 0.000000 - 0.000000",
"Step : 0.010000",
"Channel_info_end",
"Channel_info_start",
"Channel : Al",
"Points : 0",
"Range : 0.000000 - 0.000000",
"Step : 0.010000",
"Channel_info_end",
"Channel_info_start",
"Channel : Si",
"Points : 0",
"Range : 0.000000 - 0.000000",
"Step : 0.010000",
"Channel_info_end",
"Channel_info_start",
"Channel : P ",
"Points : 0",
"Range : 0.000000 - 0.000000",
"Step : 0.010000",
"Channel_info_end",
"Channel_info_start",
"Channel : S ",
"Points : 0",
"Range : 0.000000 - 0.000000",
"Step : 0.010000",
"Channel_info_end",
"Channel_info_start",
"Channel : Cl",
"Points : 0",
"Range : 0.000000 - 0.000000",
"Step : 0.010000",
"Channel_info_end",
"Channel_info_start",
"Channel : K ",
"Points : 0",
"Range : 0.000000 - 0.000000",
"Step : 0.010000",
"Channel_info_end",
"Channel_info_start",
"Channel : Ca",
"Points : 0",
"Range : 0.000000 - 0.000000",
"Step : 0.010000",
"Channel_info_end",
"Channel_info_start",
"Channel : Ti",
"Points : 0",
"Range : 0.000000 - 0.000000",
"Step : 0.010000",
"Channel_info_end",
"Channel_info_start",
"Channel : V ",
"Points : 0",
"Range : 0.000000 - 0.000000",
"Step : 0.010000",
"Channel_info_end",
"Channel_info_start",
"Channel : Cr",
"Points : 0",
"Range : 0.000000 - 0.000000",
"Step : 0.010000",
"Channel_info_end",
"Channel_info_start",
"Channel : Mn",
"Points : 0",
"Range : 0.000000 - 0.000000",
"Step : 0.010000",
"Channel_info_end",
"Channel_info_start",
"Channel : Fe",
"Points : 0",
"Range : 0.000000 - 0.000000",
"Step : 0.010000",
"Channel_info_end",
"Channel_info_start",
"Channel : Cu",
"Points : 0",
"Range : 0.000000 - 0.000000",
"Step : 0.010000",
"Channel_info_end",
"Channel_info_start",
"Channel : Zn",
"Points : 0",
"Range : 0.000000 - 0.000000",
"Step : 0.010000",
"Channel_info_end",
"Channel_info_start",
"Channel : Sr",
"Points : 0",
"Range : 0.000000 - 0.000000",
"Step : 0.010000",
"Channel_info_end",
"Channel_info_start",
"Channel : Pb",
"Points : 0",
"Range : 0.000000 - 0.000000",
"Step : 0.010000",
"Channel_info_end",
"",
"Qualitative Result",
"--------------------------------------------------------------------------------",
"Element :  Nb, Ca",
"",
"Peak List",
"--------------------------------------------------------------------------------",
"Channel               Line        keV     Net Int.(cps/uA)",
"--------------------------------------------------------------------------------",
"Na                    ----         0.42     0.016",
"                      ----         1.92     0.051",
"                      NbLa         2.17     0.792",
"                      CaKa         3.68     0.168",
"                      CaKb         4.00     0.021",
"                      NbKa        16.56     7.426",
"                      NbKb        18.56     1.170",
"                      ----        18.97     0.179",
"                      ----        20.04     0.059",
"--------------------------------------------------------------------------------",
"",
"Quantitative Result",
"--------------------------------------------------------------------------------",
"Analyte               Result             Std.Dev. Proc.-Calc. Line Intensity(cps/uA)",
"--------------------------------------------------------------------------------",
"====[No. 1 Layer]====< Layer1               >===============================",
"Layer1                   0.000 ug/cm2    -------- Flux       -------- --------",