File: inputs/edxCalibration/edx_raw/2010-06/Nb2O3  15763.20100525234137.csv
"Sample    : Nb2O3  15763",
"Operator  : luisf",
"Comment  : cubatao-g-policarbonato",
"Group     : kerr2007ag180cal_lt",
"Date       : 2010-05-25 23:37:31",
"",
"Mesurement Condition",
"------------------------------------------------------------------------------------",
"Instrument : 700HS2   Atmosphere : Vac.   Collimator : 10(mm)   Spin : No",
"------------------------------------------------------------------------------------",
"Analyte               TG kV   uA      FI Acq.(keV)  Anal.(keV)  Time(sec)     DT(%)",
"------------------------------------------------------------------------------------",
"Na                    Rh 50  237-Auto Al  0 - 20    0.8 - 1.2   Live -  179   16",
"",
"<Profile>",
"Channel_info_start",
"Channel : Na",
"Points : 2048",
"Range : 0.000000 - 20.48",
"Step : 0.010000",
"Channel_info_end",
"0",
"0",
"0",
"0",
"1",
"61",
"92",
"75",
"59",
"37",
"41",
"51",
"52",
"64",
"42",
"63",
"34",
"37",
"30",
"35",
"37",
"46",
"36",
"46",
"49",
"85",
"106",
"217",
"245",
"289",
"1030",
"2965",
"2086",
"1085",
"380",
"143",
"65",
"43",
"67",
"44",
"30",
"27",
"27",
"18",
"16",
"25",
"24",
"33",
"26",
"22",
"17",
"114",
"368",
"509",
"176",
"50",
"55",
"97",
"81",
"34",
"34",
"49",
"30",
"49",
"56",
"59",
"52",
"77",
"52",
"43",
"49",
"52",
"34",
"53",
"46",
"39",
"49",
"50",
"58",
"49",
"72",
"66",
"65",
"74",
"73",
"85",
"54",
"78",
"54",
"74",
"90",
"78",
"93",
"92",
"94",
"94",
"88",
"100",
"107",
"98",
"107",
"88",
"85",
"90",
"96",
"101",
"112",
"92",
"93",
"89",
"99",
"88",
"88",
"117",
"141",
"149",
"97",
"101",
"107",
"92",
"113",
"94",
"135",
"161",
"128",
"110",
"102",
"85",
"116",
"110",
"87",
"103",
"99",
"99",
"103",
"117",
"79",
"102",
"99",
"119",
"100",
"110",
"86",
"93",
"93",
"89",
"98",
"86",
"76",
"86",
"82",
"107",
"87",
"107",
"88",
"87",
"74",
"67",
"89",
"91",
"90",
"82",
"105",
"81",
"85",
"87",
"78",
"92",
"87",
"91",
"80",
"80",
"91",
"60",
"74",
"90",
"81",
"74",
"82",
"81",
"85",
"96",
"69",
"79",
"91",
"94",
"91",
"87",
"77",
"86",
"79",
"91",
"81",
"75",
"90",
"81",
"69",
"84",
"76",
"64",
"69",
"69",
"63",
"67",
"58",
"81",
"55",
"61",
"68",
"63",
"71",
"86",
"76",
"65",
"67",
"93",
"62",
"69",
"80",
"69",
"82",
"73",
"72",
"75",
"99",
"90",
"82",
"81",
"84",
"103",
"107",
"187",
"429",
"1513",
"4163",
"9379",
"13271",
"14163",
"10428",
"5712",
"2046",
"584",
"156",
"102",
"82",
"80",
"74",
"61",
"73",
"68",
"67",
"56",
"75",
"72",
"66",
"55",
"94",
"87",
"90",
"79",
"106",
"140",
"277",
"806",
"1573",
"2268",
"2351",
"1947",
"1187",
"736",
"660",
"624",
"562",
"440",
"387",
"367",
"300",
"231",
"193",
"182",
"126",
"96",
"77",
"69",
"100",
"123",
"157",
"163",
"167",
"109",
"75",
"63",
"47",
"25350",
"Channel_info_start",
"Channel : Mg",
"Points : 0",
"Range : 0.000000 - 0.000000",
"Step : 0.010000",
"Channel_info_end",
"Channel_info_start",
"Channel : Al",
"Points : 0",
"Range : 0.000000 - 0.000000",
"Step : 0.010000",
"Channel_info_end",
"Channel_info_start",
"Channel : Si",
"Points : 0",
"Range : 0.000000 - 0.000000",
"Step : 0.010000",
"Channel_info_end",
"Channel_info_start",
"Channel : P ",
"Points : 0",
"Range : 0.000000 - 0.000000",
"Step : 0.010000",
"Channel_info_end",
"Channel_info_start",
"Channel : S ",
"Points : 0",
"Range : 0.000000 - 0.000000",
"Step : 0.010000",
"Channel_info_end",
"Channel_info_start",
"Channel : Cl",
"Points : 0",
"Range : 0.000000 - 0.000000",
"Step : 0.010000",
"Channel_info_end",
"Channel_info_start",
"Channel : K ",
"Points : 0",
"Range : 0.000000 - 0.000000",
"Step : 0.010000",
"Channel_info_end",
"Channel_info_start",
"Channel : Ca",
"Points : 0",
"Range : 0.000000 - 0.000000",
"Step : 0.010000",
"Channel_info_end",
"Channel_info_start",
"Channel : Ti",
"Points : 0",
"Range : 0.000000 - 0.000000",
"Step : 0.010000",
"Channel_info_end",
"Channel_info_start",
"Channel : V ",
"Points : 0",
"Range : 0.000000 - 0.000000",
"Step : 0.010000",
"Channel_info_end",
"Channel_info_start",
"Channel : Cr",
"Points : 0",
"Range : 0.000000 - 0.000000",
"Step : 0.010000",
"Channel_info_end",
"Channel_info_start",
"Channel : Mn",
"Points : 0",
"Range : 0.000000 - 0.000000",
"Step : 0.010000",
"Channel_info_end",
"Channel_info_start",
"Channel : Fe",
"Points : 0",
"Range : 0.000000 - 0.000000",
"Step : 0.010000",
"Channel_info_end",
"Channel_info_start",
"Channel : Cu",
"Points : 0",
"Range : 0.000000 - 0.000000",
"Step : 0.010000",
"Channel_info_end",
"Channel_info_start",
"Channel : Zn",
"Points : 0",
"Range : 0.000000 - 0.000000",
"Step : 0.010000",
"Channel_info_end",
"Channel_info_start",
"Channel : Sr",
"Points : 0",
"Range : 0.000000 - 0.000000",
"Step : 0.010000",
"Channel_info_end",
"Channel_info_start",
"Channel : Pb",
"Points : 0",
"Range : 0.000000 - 0.000000",
"Step : 0.010000",
"Channel_info_end",
"",
"Qualitative Result",
"--------------------------------------------------------------------------------",
"Element :  Sc, Nb, Ca, Rh",
"",
"Peak List",
"--------------------------------------------------------------------------------",
"Channel               Line        keV     Net Int.(cps/uA)",
"--------------------------------------------------------------------------------",
"Na                    ScLa         0.41     0.017",
"                      ----         0.50     0.013",
"                      ----         1.91     0.051",
"                      NbLa         2.17     0.778",
"                      CaKa         3.70     0.160",
"                      CaKb         4.03     0.020",
"                      NbKa        16.56     7.320",
"                      NbKb        18.57     1.144",
"                      ----        18.98     0.155",
"                      RhKa        20.05     0.056",
"--------------------------------------------------------------------------------",
"",
"Quantitative Result",
"--------------------------------------------------------------------------------",
"Analyte               Result             Std.Dev. Proc.-Calc. Line Intensity(cps/uA)",
"--------------------------------------------------------------------------------",
"====[No. 1 Layer]====< Layer1               >===============================",
"Layer1                   0.000 ug/cm2    -------- Flux       -------- --------",