File: inputs/edxCalibration/edx_raw/2010-06/Ni 15757.20100525220555.csv
"Sample    : Ni 15757",
"Operator  : luisf",
"Comment  : cubatao-g-policarbonato",
"Group     : kerr2007ag180cal_lt",
"Date       : 2010-05-25 22:01:53",
"",
"Mesurement Condition",
"------------------------------------------------------------------------------------",
"Instrument : 700HS2   Atmosphere : Vac.   Collimator : 10(mm)   Spin : No",
"------------------------------------------------------------------------------------",
"Analyte               TG kV   uA      FI Acq.(keV)  Anal.(keV)  Time(sec)     DT(%)",
"------------------------------------------------------------------------------------",
"Na                    Rh 50  152-Auto Al  0 - 20    0.8 - 1.2   Live -  179   15",
"",
"<Profile>",
"Channel_info_start",
"Channel : Na",
"Points : 2048",
"Range : 0.000000 - 20.48",
"Step : 0.010000",
"Channel_info_end",
"0",
"0",
"0",
"0",
"0",
"13",
"4",
"8",
"9",
"12",
"5",
"30",
"96",
"105",
"20",
"12",
"7",
"16",
"12",
"10",
"3",
"14",
"10",
"8",
"17",
"11",
"12",
"21",
"37",
"33",
"15",
"10",
"14",
"13",
"7",
"10",
"10",
"9",
"8",
"13",
"9",
"12",
"2",
"10",
"9",
"11",
"5",
"12",
"13",
"11",
"17",
"58",
"289",
"378",
"105",
"42",
"27",
"61",
"41",
"30",
"17",
"18",
"33",
"27",
"28",
"35",
"40",
"34",
"35",
"33",
"16",
"29",
"29",
"33",
"24",
"28",
"42",
"28",
"37",
"41",
"41",
"99",
"99",
"68",
"39",
"51",
"56",
"51",
"63",
"61",
"93",
"91",
"96",
"76",
"76",
"77",
"54",
"76",
"60",
"103",
"85",
"131",
"153",
"246",
"1207",
"8409",
"25206",
"30927",
"13683",
"2466",
"260",
"135",
"96",
"106",
"161",
"309",
"929",
"2973",
"4046",
"2661",
"718",
"171",
"68",
"86",
"92",
"54",
"47",
"72",
"60",
"52",
"39",
"53",
"49",
"73",
"48",
"77",
"51",
"59",
"47",
"59",
"56",
"54",
"63",
"54",
"52",
"87",
"59",
"45",
"52",
"59",
"54",
"54",
"64",
"49",
"54",
"55",
"41",
"61",
"59",
"51",
"58",
"47",
"62",
"53",
"60",
"53",
"46",
"63",
"40",
"49",
"51",
"43",
"45",
"39",
"43",
"53",
"47",
"48",
"35",
"42",
"55",
"37",
"52",
"61",
"52",
"46",
"49",
"54",
"40",
"41",
"43",
"42",
"48",
"61",
"34",
"49",
"48",
"43",
"45",
"62",
"50",
"46",
"41",
"61",
"50",
"47",
"47",
"35",
"34",
"35",
"37",
"49",
"66",
"73",
"74",
"61",
"38",
"43",
"41",
"40",
"36",
"33",
"41",
"49",
"46",
"38",
"35",
"43",
"38",
"29",
"32",
"39",
"39",
"29",
"43",
"40",
"32",
"34",
"35",
"36",
"35",
"32",
"47",
"30",
"26",
"40",
"37",
"34",
"38",
"47",
"26",
"32",
"46",
"37",
"41",
"34",
"38",
"41",
"36",
"53",
"38",
"50",
"37",
"38",
"40",
"63",
"60",
"72",
"90",
"87",
"135",
"165",
"212",
"246",
"213",
"214",
"211",
"160",
"131",
"116",
"90",
"71",
"54",
"56",
"60",
"104",
"123",
"121",
"116",
"78",
"40",
"35",
"38",
"16501",
"Channel_info_start",
"Channel : Mg",
"Points : 0",
"Range : 0.000000 - 0.000000",
"Step : 0.010000",
"Channel_info_end",
"Channel_info_start",
"Channel : Al",
"Points : 0",
"Range : 0.000000 - 0.000000",
"Step : 0.010000",
"Channel_info_end",
"Channel_info_start",
"Channel : Si",
"Points : 0",
"Range : 0.000000 - 0.000000",
"Step : 0.010000",
"Channel_info_end",
"Channel_info_start",
"Channel : P ",
"Points : 0",
"Range : 0.000000 - 0.000000",
"Step : 0.010000",
"Channel_info_end",
"Channel_info_start",
"Channel : S ",
"Points : 0",
"Range : 0.000000 - 0.000000",
"Step : 0.010000",
"Channel_info_end",
"Channel_info_start",
"Channel : Cl",
"Points : 0",
"Range : 0.000000 - 0.000000",
"Step : 0.010000",
"Channel_info_end",
"Channel_info_start",
"Channel : K ",
"Points : 0",
"Range : 0.000000 - 0.000000",
"Step : 0.010000",
"Channel_info_end",
"Channel_info_start",
"Channel : Ca",
"Points : 0",
"Range : 0.000000 - 0.000000",
"Step : 0.010000",
"Channel_info_end",
"Channel_info_start",
"Channel : Ti",
"Points : 0",
"Range : 0.000000 - 0.000000",
"Step : 0.010000",
"Channel_info_end",
"Channel_info_start",
"Channel : V ",
"Points : 0",
"Range : 0.000000 - 0.000000",
"Step : 0.010000",
"Channel_info_end",
"Channel_info_start",
"Channel : Cr",
"Points : 0",
"Range : 0.000000 - 0.000000",
"Step : 0.010000",
"Channel_info_end",
"Channel_info_start",
"Channel : Mn",
"Points : 0",
"Range : 0.000000 - 0.000000",
"Step : 0.010000",
"Channel_info_end",
"Channel_info_start",
"Channel : Fe",
"Points : 0",
"Range : 0.000000 - 0.000000",
"Step : 0.010000",
"Channel_info_end",
"Channel_info_start",
"Channel : Cu",
"Points : 0",
"Range : 0.000000 - 0.000000",
"Step : 0.010000",
"Channel_info_end",
"Channel_info_start",
"Channel : Zn",
"Points : 0",
"Range : 0.000000 - 0.000000",
"Step : 0.010000",
"Channel_info_end",
"Channel_info_start",
"Channel : Sr",
"Points : 0",
"Range : 0.000000 - 0.000000",
"Step : 0.010000",
"Channel_info_end",
"Channel_info_start",
"Channel : Pb",
"Points : 0",
"Range : 0.000000 - 0.000000",
"Step : 0.010000",
"Channel_info_end",
"",
"Qualitative Result",
"--------------------------------------------------------------------------------",
"Element :  Ni, P , Ca",
"",
"Peak List",
"--------------------------------------------------------------------------------",
"Channel               Line        keV     Net Int.(cps/uA)",
"--------------------------------------------------------------------------------",
"Na                    NiLa         0.86     0.045",
"                      P Ka         1.99     0.012",
"                      CaKa         3.68     0.189",
"                      CaKb         4.02     0.024",
"                      NiKaESC      5.76     0.049",
"                      NiKa         7.47    19.250",
"                      NiKb         8.26     2.573",
"                      NiKaSUM     14.88     0.037",
"                      ----        19.13     0.135",
"                      ----        19.43     0.064",
"                      ----        19.96     0.053",
"--------------------------------------------------------------------------------",
"",
"Quantitative Result",
"--------------------------------------------------------------------------------",
"Analyte               Result             Std.Dev. Proc.-Calc. Line Intensity(cps/uA)",
"--------------------------------------------------------------------------------",
"====[No. 1 Layer]====< Layer1               >===============================",
"Layer1                   0.000 ug/cm2    -------- Flux       -------- --------",