File: inputs/edxCalibration/edx_raw/2010-06/Pg 15772.20100611041543.csv
"Sample    : Pg 15772",
"Operator  : Luís",
"Comment  : cubatao-g-policarbonato",
"Group     : kerr2007ag180cal_lt",
"Date       : 2010-06-11 04:11:40",
"",
"Mesurement Condition",
"------------------------------------------------------------------------------------",
"Instrument : 700HS2   Atmosphere : Vac.   Collimator : 10(mm)   Spin : No",
"------------------------------------------------------------------------------------",
"Analyte               TG kV   uA      FI Acq.(keV)  Anal.(keV)  Time(sec)     DT(%)",
"------------------------------------------------------------------------------------",
"Na                    Rh 50  152-Auto Al  0 - 20    0.8 - 1.2   Live -  179   15",
"",
"<Profile>",
"Channel_info_start",
"Channel : Na",
"Points : 2048",
"Range : 0.000000 - 20.48",
"Step : 0.010000",
"Channel_info_end",
"0",
"0",
"0",
"0",
"0",
"20",
"24",
"36",
"49",
"124",
"89",
"39",
"44",
"30",
"33",
"30",
"27",
"24",
"14",
"21",
"38",
"31",
"33",
"41",
"43",
"100",
"294",
"233",
"154",
"146",
"196",
"264",
"479",
"2721",
"4152",
"3365",
"1247",
"330",
"443",
"221",
"95",
"63",
"57",
"89",
"162",
"165",
"67",
"46",
"20",
"27",
"27",
"61",
"239",
"350",
"110",
"29",
"31",
"57",
"43",
"31",
"20",
"20",
"23",
"43",
"37",
"36",
"46",
"37",
"40",
"48",
"36",
"42",
"42",
"56",
"40",
"30",
"37",
"35",
"25",
"46",
"41",
"38",
"62",
"68",
"73",
"61",
"60",
"62",
"66",
"78",
"72",
"110",
"90",
"87",
"88",
"106",
"86",
"77",
"95",
"92",
"79",
"77",
"87",
"77",
"81",
"81",
"79",
"93",
"99",
"89",
"90",
"88",
"98",
"112",
"116",
"124",
"123",
"84",
"91",
"88",
"100",
"105",
"115",
"132",
"152",
"119",
"115",
"112",
"129",
"214",
"513",
"787",
"586",
"284",
"124",
"108",
"94",
"105",
"98",
"89",
"103",
"104",
"92",
"105",
"125",
"115",
"176",
"520",
"1900",
"5432",
"9614",
"10273",
"5472",
"1664",
"337",
"121",
"134",
"111",
"92",
"101",
"150",
"192",
"245",
"218",
"127",
"74",
"86",
"86",
"88",
"100",
"114",
"156",
"208",
"311",
"384",
"472",
"544",
"913",
"2338",
"5470",
"6999",
"5639",
"2848",
"1248",
"587",
"450",
"354",
"293",
"178",
"119",
"106",
"86",
"61",
"68",
"66",
"53",
"50",
"52",
"62",
"63",
"64",
"74",
"74",
"91",
"90",
"108",
"81",
"124",
"244",
"577",
"936",
"1034",
"755",
"398",
"267",
"298",
"329",
"332",
"223",
"131",
"74",
"68",
"56",
"73",
"87",
"87",
"57",
"66",
"57",
"57",
"47",
"46",
"39",
"49",
"38",
"48",
"51",
"49",
"34",
"53",
"41",
"43",
"49",
"46",
"41",
"37",
"41",
"49",
"55",
"37",
"34",
"40",
"48",
"43",
"46",
"46",
"37",
"46",
"47",
"60",
"56",
"52",
"60",
"48",
"66",
"47",
"51",
"75",
"111",
"105",
"143",
"198",
"208",
"255",
"214",
"218",
"205",
"195",
"132",
"104",
"90",
"72",
"67",
"78",
"120",
"198",
"256",
"261",
"202",
"118",
"52",
"40",
"46",
"20391",
"Channel_info_start",
"Channel : Mg",
"Points : 0",
"Range : 0.000000 - 0.000000",
"Step : 0.010000",
"Channel_info_end",
"Channel_info_start",
"Channel : Al",
"Points : 0",
"Range : 0.000000 - 0.000000",
"Step : 0.010000",
"Channel_info_end",
"Channel_info_start",
"Channel : Si",
"Points : 0",
"Range : 0.000000 - 0.000000",
"Step : 0.010000",
"Channel_info_end",
"Channel_info_start",
"Channel : P ",
"Points : 0",
"Range : 0.000000 - 0.000000",
"Step : 0.010000",
"Channel_info_end",
"Channel_info_start",
"Channel : S ",
"Points : 0",
"Range : 0.000000 - 0.000000",
"Step : 0.010000",
"Channel_info_end",
"Channel_info_start",
"Channel : Cl",
"Points : 0",
"Range : 0.000000 - 0.000000",
"Step : 0.010000",
"Channel_info_end",
"Channel_info_start",
"Channel : K ",
"Points : 0",
"Range : 0.000000 - 0.000000",
"Step : 0.010000",
"Channel_info_end",
"Channel_info_start",
"Channel : Ca",
"Points : 0",
"Range : 0.000000 - 0.000000",
"Step : 0.010000",
"Channel_info_end",
"Channel_info_start",
"Channel : Ti",
"Points : 0",
"Range : 0.000000 - 0.000000",
"Step : 0.010000",
"Channel_info_end",
"Channel_info_start",
"Channel : V ",
"Points : 0",
"Range : 0.000000 - 0.000000",
"Step : 0.010000",
"Channel_info_end",
"Channel_info_start",
"Channel : Cr",
"Points : 0",
"Range : 0.000000 - 0.000000",
"Step : 0.010000",
"Channel_info_end",
"Channel_info_start",
"Channel : Mn",
"Points : 0",
"Range : 0.000000 - 0.000000",
"Step : 0.010000",
"Channel_info_end",
"Channel_info_start",
"Channel : Fe",
"Points : 0",
"Range : 0.000000 - 0.000000",
"Step : 0.010000",
"Channel_info_end",
"Channel_info_start",
"Channel : Cu",
"Points : 0",
"Range : 0.000000 - 0.000000",
"Step : 0.010000",
"Channel_info_end",
"Channel_info_start",
"Channel : Zn",
"Points : 0",
"Range : 0.000000 - 0.000000",
"Step : 0.010000",
"Channel_info_end",
"Channel_info_start",
"Channel : Sr",
"Points : 0",
"Range : 0.000000 - 0.000000",
"Step : 0.010000",
"Channel_info_end",
"Channel_info_start",
"Channel : Pb",
"Points : 0",
"Range : 0.000000 - 0.000000",
"Step : 0.010000",
"Channel_info_end",
"",
"Qualitative Result",
"--------------------------------------------------------------------------------",
"Element :  Pb, S , Cl, Ir, Ru",
"",
"Peak List",
"--------------------------------------------------------------------------------",
"Channel               Line        keV     Net Int.(cps/uA)",
"--------------------------------------------------------------------------------",
"Na                    ----         0.66     0.026",
"                      ----         1.84     0.095",
"                      PbMa         2.37     1.299",
"                      S Ka         2.37     0.588",
"                      ClKa         2.67     0.158",
"                      ----         3.11     0.061",
"                      ----         3.68     0.166",
"                      PbLL         9.17     0.289",
"                      IrLa         9.17     0.126",
"                      PbLa        10.52     7.216",
"                      PbLn        11.29     0.105",
"                      PbLb4       12.26     0.158",
"                      PbLb1       12.60     4.925",
"                      IrLg3       12.99     0.099",
"                      PbLg1       14.75     0.724",
"                      PbLg2       15.13     0.193",
"                      ----        19.12     0.145",
"                      RuKa        19.34     0.108",
"                      ----        19.96     0.109",
"--------------------------------------------------------------------------------",
"",
"Quantitative Result",
"--------------------------------------------------------------------------------",
"Analyte               Result             Std.Dev. Proc.-Calc. Line Intensity(cps/uA)",
"--------------------------------------------------------------------------------",
"====[No. 1 Layer]====< Layer1               >===============================",
"Layer1                   0.000 ug/cm2    -------- Flux       -------- --------",