File: inputs/edxCalibration/edx_raw/2010-06/Pg 15772.20100626151506.csv
"Sample    : Pg 15772",
"Operator  : thiago",
"Comment  : cubatao-g-policarbonato",
"Group     : kerr2007ag180cal_lt",
"Date       : 2010-06-26 15:11:04",
"",
"Mesurement Condition",
"------------------------------------------------------------------------------------",
"Instrument : 700HS2   Atmosphere : Vac.   Collimator : 10(mm)   Spin : No",
"------------------------------------------------------------------------------------",
"Analyte               TG kV   uA      FI Acq.(keV)  Anal.(keV)  Time(sec)     DT(%)",
"------------------------------------------------------------------------------------",
"Na                    Rh 50  152-Auto Al  0 - 20    0.8 - 1.2   Live -  179   15",
"",
"<Profile>",
"Channel_info_start",
"Channel : Na",
"Points : 2048",
"Range : 0.000000 - 20.48",
"Step : 0.010000",
"Channel_info_end",
"0",
"0",
"0",
"0",
"1",
"30",
"27",
"35",
"57",
"91",
"89",
"55",
"21",
"40",
"31",
"24",
"25",
"22",
"24",
"20",
"35",
"41",
"31",
"43",
"41",
"86",
"324",
"208",
"149",
"124",
"154",
"279",
"464",
"2445",
"4223",
"3339",
"1322",
"351",
"429",
"243",
"74",
"65",
"73",
"82",
"176",
"167",
"87",
"31",
"26",
"25",
"24",
"80",
"247",
"353",
"120",
"42",
"34",
"54",
"47",
"37",
"27",
"24",
"23",
"31",
"35",
"31",
"39",
"47",
"52",
"59",
"50",
"38",
"41",
"38",
"38",
"35",
"43",
"47",
"47",
"38",
"49",
"47",
"59",
"64",
"54",
"80",
"76",
"65",
"68",
"66",
"72",
"80",
"102",
"95",
"83",
"101",
"92",
"88",
"77",
"91",
"89",
"98",
"92",
"74",
"80",
"108",
"89",
"95",
"86",
"88",
"88",
"105",
"98",
"107",
"127",
"124",
"117",
"90",
"73",
"92",
"69",
"105",
"101",
"129",
"139",
"110",
"94",
"113",
"107",
"200",
"445",
"693",
"589",
"288",
"134",
"111",
"111",
"116",
"82",
"119",
"98",
"104",
"99",
"116",
"117",
"119",
"138",
"442",
"1593",
"4672",
"9316",
"10641",
"6056",
"2022",
"424",
"140",
"110",
"107",
"83",
"130",
"137",
"200",
"222",
"216",
"151",
"98",
"99",
"89",
"108",
"117",
"88",
"151",
"162",
"280",
"374",
"546",
"522",
"819",
"1865",
"4923",
"7044",
"6003",
"3283",
"1378",
"636",
"445",
"371",
"344",
"203",
"105",
"111",
"90",
"85",
"76",
"62",
"62",
"77",
"54",
"59",
"55",
"62",
"64",
"75",
"86",
"75",
"87",
"97",
"106",
"194",
"487",
"968",
"1082",
"806",
"419",
"243",
"261",
"350",
"323",
"273",
"169",
"91",
"60",
"51",
"64",
"76",
"108",
"77",
"53",
"52",
"42",
"49",
"42",
"53",
"54",
"55",
"54",
"47",
"34",
"43",
"52",
"44",
"36",
"46",
"43",
"44",
"30",
"50",
"49",
"39",
"44",
"52",
"51",
"28",
"37",
"46",
"39",
"59",
"36",
"42",
"33",
"53",
"46",
"43",
"54",
"57",
"64",
"62",
"59",
"81",
"88",
"155",
"180",
"176",
"234",
"222",
"254",
"214",
"195",
"152",
"119",
"108",
"77",
"59",
"66",
"106",
"178",
"190",
"236",
"215",
"125",
"79",
"43",
"34",
"20605",
"Channel_info_start",
"Channel : Mg",
"Points : 0",
"Range : 0.000000 - 0.000000",
"Step : 0.010000",
"Channel_info_end",
"Channel_info_start",
"Channel : Al",
"Points : 0",
"Range : 0.000000 - 0.000000",
"Step : 0.010000",
"Channel_info_end",
"Channel_info_start",
"Channel : Si",
"Points : 0",
"Range : 0.000000 - 0.000000",
"Step : 0.010000",
"Channel_info_end",
"Channel_info_start",
"Channel : P ",
"Points : 0",
"Range : 0.000000 - 0.000000",
"Step : 0.010000",
"Channel_info_end",
"Channel_info_start",
"Channel : S ",
"Points : 0",
"Range : 0.000000 - 0.000000",
"Step : 0.010000",
"Channel_info_end",
"Channel_info_start",
"Channel : Cl",
"Points : 0",
"Range : 0.000000 - 0.000000",
"Step : 0.010000",
"Channel_info_end",
"Channel_info_start",
"Channel : K ",
"Points : 0",
"Range : 0.000000 - 0.000000",
"Step : 0.010000",
"Channel_info_end",
"Channel_info_start",
"Channel : Ca",
"Points : 0",
"Range : 0.000000 - 0.000000",
"Step : 0.010000",
"Channel_info_end",
"Channel_info_start",
"Channel : Ti",
"Points : 0",
"Range : 0.000000 - 0.000000",
"Step : 0.010000",
"Channel_info_end",
"Channel_info_start",
"Channel : V ",
"Points : 0",
"Range : 0.000000 - 0.000000",
"Step : 0.010000",
"Channel_info_end",
"Channel_info_start",
"Channel : Cr",
"Points : 0",
"Range : 0.000000 - 0.000000",
"Step : 0.010000",
"Channel_info_end",
"Channel_info_start",
"Channel : Mn",
"Points : 0",
"Range : 0.000000 - 0.000000",
"Step : 0.010000",
"Channel_info_end",
"Channel_info_start",
"Channel : Fe",
"Points : 0",
"Range : 0.000000 - 0.000000",
"Step : 0.010000",
"Channel_info_end",
"Channel_info_start",
"Channel : Cu",
"Points : 0",
"Range : 0.000000 - 0.000000",
"Step : 0.010000",
"Channel_info_end",
"Channel_info_start",
"Channel : Zn",
"Points : 0",
"Range : 0.000000 - 0.000000",
"Step : 0.010000",
"Channel_info_end",
"Channel_info_start",
"Channel : Sr",
"Points : 0",
"Range : 0.000000 - 0.000000",
"Step : 0.010000",
"Channel_info_end",
"Channel_info_start",
"Channel : Pb",
"Points : 0",
"Range : 0.000000 - 0.000000",
"Step : 0.010000",
"Channel_info_end",
"",
"Qualitative Result",
"--------------------------------------------------------------------------------",
"Element :  Pb, S , Cl, Ca, Ir, Ru",
"",
"Peak List",
"--------------------------------------------------------------------------------",
"Channel               Line        keV     Net Int.(cps/uA)",
"--------------------------------------------------------------------------------",
"Na                    ----         0.61     0.028",
"                      ----         0.71     0.023",
"                      ----         1.82     0.106",
"                      PbMa         2.37     1.257",
"                      S Ka         2.37     0.612",
"                      ClKa         2.66     0.156",
"                      ----         3.11     0.067",
"                      CaKa         3.70     0.175",
"                      CaKb         4.01     0.019",
"                      PbLL         9.20     0.279",
"                      IrLa         9.20     0.126",
"                      PbLa        10.55     6.982",
"                      IrLb1       10.71     0.069",
"                      PbLn        11.38     0.107",
"                      PbLb4       12.26     0.182",
"                      PbLb1       12.61     4.871",
"                      ----        13.08     0.087",
"                      PbLg1       14.80     0.677",
"                      PbLg2       15.17     0.211",
"                      RuKa        19.23     0.137",
"                      ----        19.97     0.130",
"--------------------------------------------------------------------------------",
"",
"Quantitative Result",
"--------------------------------------------------------------------------------",
"Analyte               Result             Std.Dev. Proc.-Calc. Line Intensity(cps/uA)",
"--------------------------------------------------------------------------------",
"====[No. 1 Layer]====< Layer1               >===============================",
"Layer1                   0.000 ug/cm2    -------- Flux       -------- --------",