File: inputs/edxCalibration/edx_raw/2010-06/Pt 15770.20100626154741.csv
"Sample    : Pt 15770",
"Operator  : luis",
"Comment  : cubatao-g-policarbonato",
"Group     : kerr2007ag180cal_lt",
"Date       : 2010-06-26 15:43:38",
"",
"Mesurement Condition",
"------------------------------------------------------------------------------------",
"Instrument : 700HS2   Atmosphere : Vac.   Collimator : 10(mm)   Spin : No",
"------------------------------------------------------------------------------------",
"Analyte               TG kV   uA      FI Acq.(keV)  Anal.(keV)  Time(sec)     DT(%)",
"------------------------------------------------------------------------------------",
"Na                    Rh 50  210-Auto Al  0 - 20    0.8 - 1.2   Live -  179   15",
"",
"<Profile>",
"Channel_info_start",
"Channel : Na",
"Points : 2048",
"Range : 0.000000 - 20.48",
"Step : 0.010000",
"Channel_info_end",
"0",
"0",
"0",
"0",
"1",
"96",
"59",
"41",
"33",
"32",
"26",
"21",
"32",
"23",
"38",
"20",
"23",
"20",
"20",
"36",
"29",
"49",
"114",
"280",
"199",
"162",
"189",
"282",
"641",
"2794",
"3763",
"2093",
"415",
"377",
"250",
"81",
"42",
"54",
"124",
"128",
"64",
"47",
"19",
"33",
"28",
"20",
"26",
"25",
"23",
"22",
"21",
"93",
"294",
"480",
"138",
"42",
"49",
"78",
"58",
"45",
"34",
"29",
"26",
"26",
"37",
"35",
"41",
"39",
"38",
"42",
"38",
"40",
"37",
"33",
"34",
"42",
"46",
"70",
"60",
"73",
"78",
"82",
"91",
"89",
"68",
"79",
"62",
"66",
"76",
"97",
"108",
"133",
"113",
"144",
"140",
"136",
"134",
"123",
"145",
"142",
"105",
"118",
"107",
"82",
"73",
"95",
"103",
"115",
"90",
"77",
"115",
"109",
"99",
"101",
"143",
"165",
"211",
"526",
"734",
"610",
"271",
"160",
"152",
"171",
"212",
"158",
"146",
"168",
"158",
"180",
"137",
"299",
"1006",
"4064",
"9396",
"12214",
"7502",
"2364",
"442",
"199",
"147",
"211",
"289",
"268",
"200",
"121",
"108",
"130",
"119",
"110",
"107",
"131",
"169",
"329",
"613",
"1027",
"1925",
"4041",
"5726",
"5891",
"4491",
"3162",
"1703",
"807",
"368",
"363",
"262",
"203",
"174",
"123",
"105",
"109",
"90",
"117",
"105",
"101",
"94",
"99",
"118",
"130",
"107",
"126",
"223",
"549",
"944",
"1207",
"797",
"440",
"309",
"365",
"379",
"368",
"235",
"155",
"91",
"99",
"112",
"105",
"108",
"106",
"82",
"69",
"58",
"63",
"70",
"50",
"77",
"62",
"56",
"65",
"61",
"63",
"76",
"76",
"83",
"66",
"57",
"63",
"64",
"63",
"64",
"75",
"53",
"65",
"58",
"56",
"40",
"52",
"56",
"65",
"63",
"61",
"63",
"69",
"42",
"53",
"51",
"58",
"54",
"54",
"58",
"68",
"60",
"48",
"50",
"70",
"59",
"63",
"48",
"53",
"69",
"61",
"53",
"49",
"56",
"40",
"66",
"56",
"63",
"54",
"65",
"58",
"58",
"72",
"66",
"73",
"76",
"96",
"97",
"138",
"204",
"236",
"306",
"255",
"287",
"317",
"318",
"229",
"179",
"176",
"118",
"93",
"84",
"96",
"133",
"151",
"248",
"263",
"266",
"179",
"103",
"62",
"74",
"25316",
"Channel_info_start",
"Channel : Mg",
"Points : 0",
"Range : 0.000000 - 0.000000",
"Step : 0.010000",
"Channel_info_end",
"Channel_info_start",
"Channel : Al",
"Points : 0",
"Range : 0.000000 - 0.000000",
"Step : 0.010000",
"Channel_info_end",
"Channel_info_start",
"Channel : Si",
"Points : 0",
"Range : 0.000000 - 0.000000",
"Step : 0.010000",
"Channel_info_end",
"Channel_info_start",
"Channel : P ",
"Points : 0",
"Range : 0.000000 - 0.000000",
"Step : 0.010000",
"Channel_info_end",
"Channel_info_start",
"Channel : S ",
"Points : 0",
"Range : 0.000000 - 0.000000",
"Step : 0.010000",
"Channel_info_end",
"Channel_info_start",
"Channel : Cl",
"Points : 0",
"Range : 0.000000 - 0.000000",
"Step : 0.010000",
"Channel_info_end",
"Channel_info_start",
"Channel : K ",
"Points : 0",
"Range : 0.000000 - 0.000000",
"Step : 0.010000",
"Channel_info_end",
"Channel_info_start",
"Channel : Ca",
"Points : 0",
"Range : 0.000000 - 0.000000",
"Step : 0.010000",
"Channel_info_end",
"Channel_info_start",
"Channel : Ti",
"Points : 0",
"Range : 0.000000 - 0.000000",
"Step : 0.010000",
"Channel_info_end",
"Channel_info_start",
"Channel : V ",
"Points : 0",
"Range : 0.000000 - 0.000000",
"Step : 0.010000",
"Channel_info_end",
"Channel_info_start",
"Channel : Cr",
"Points : 0",
"Range : 0.000000 - 0.000000",
"Step : 0.010000",
"Channel_info_end",
"Channel_info_start",
"Channel : Mn",
"Points : 0",
"Range : 0.000000 - 0.000000",
"Step : 0.010000",
"Channel_info_end",
"Channel_info_start",
"Channel : Fe",
"Points : 0",
"Range : 0.000000 - 0.000000",
"Step : 0.010000",
"Channel_info_end",
"Channel_info_start",
"Channel : Cu",
"Points : 0",
"Range : 0.000000 - 0.000000",
"Step : 0.010000",
"Channel_info_end",
"Channel_info_start",
"Channel : Zn",
"Points : 0",
"Range : 0.000000 - 0.000000",
"Step : 0.010000",
"Channel_info_end",
"Channel_info_start",
"Channel : Sr",
"Points : 0",
"Range : 0.000000 - 0.000000",
"Step : 0.010000",
"Channel_info_end",
"Channel_info_start",
"Channel : Pb",
"Points : 0",
"Range : 0.000000 - 0.000000",
"Step : 0.010000",
"Channel_info_end",
"",
"Qualitative Result",
"--------------------------------------------------------------------------------",
"Element :  Pt, S , Ca, Ru",
"",
"Peak List",
"--------------------------------------------------------------------------------",
"Channel               Line        keV     Net Int.(cps/uA)",
"--------------------------------------------------------------------------------",
"Na                    ----         1.60     0.075",
"                      PtMa         2.08     1.238",
"                      S Ka         2.35     0.096",
"                      ----         2.70     0.043",
"                      CaKa         3.68     0.173",
"                      CaKb         4.03     0.021",
"                      ----         6.74     0.032",
"                      PtLL         8.26     0.288",
"                      PtLa         9.44     5.734",
"                      ----         9.97     0.069",
"                      PtLb1       11.07     2.846",
"                      ----        11.28     1.345",
"                      PtLg1       12.95     0.548",
"                      PtLg3       13.27     0.155",
"                      RuKa        19.21     0.154",
"--------------------------------------------------------------------------------",
"",
"Quantitative Result",
"--------------------------------------------------------------------------------",
"Analyte               Result             Std.Dev. Proc.-Calc. Line Intensity(cps/uA)",
"--------------------------------------------------------------------------------",
"====[No. 1 Layer]====< Layer1               >===============================",
"Layer1                   0.000 ug/cm2    -------- Flux       -------- --------",