File: inputs/edxCalibration/edx_raw/2010-06/Rb 31511.20100611020258.csv
"Sample    : Rb 31511",
"Operator  : Luís",
"Comment  : cubatao-g-policarbonato",
"Group     : kerr2007ag180cal_lt",
"Date       : 2010-06-11 01:56:57",
"",
"Mesurement Condition",
"------------------------------------------------------------------------------------",
"Instrument : 700HS2   Atmosphere : Vac.   Collimator : 10(mm)   Spin : No",
"------------------------------------------------------------------------------------",
"Analyte               TG kV   uA      FI Acq.(keV)  Anal.(keV)  Time(sec)     DT(%)",
"------------------------------------------------------------------------------------",
"Na                    Rh 50  237-Auto Al  0 - 20    0.8 - 1.2   Live -  180   15",
"",
"<Profile>",
"Channel_info_start",
"Channel : Na",
"Points : 2048",
"Range : 0.000000 - 20.48",
"Step : 0.010000",
"Channel_info_end",
"0",
"0",
"0",
"0",
"0",
"36",
"42",
"29",
"23",
"38",
"42",
"22",
"29",
"28",
"27",
"26",
"22",
"24",
"22",
"31",
"34",
"76",
"51",
"145",
"722",
"843",
"296",
"101",
"77",
"82",
"57",
"69",
"63",
"32",
"30",
"53",
"56",
"36",
"26",
"48",
"26",
"31",
"26",
"24",
"30",
"42",
"42",
"65",
"62",
"170",
"256",
"257",
"714",
"980",
"459",
"1778",
"5169",
"3864",
"663",
"1051",
"3320",
"3160",
"1275",
"548",
"818",
"709",
"225",
"144",
"361",
"427",
"160",
"159",
"270",
"239",
"87",
"49",
"35",
"53",
"51",
"38",
"56",
"45",
"50",
"50",
"44",
"57",
"68",
"83",
"119",
"109",
"125",
"116",
"134",
"143",
"109",
"108",
"105",
"106",
"102",
"101",
"81",
"86",
"86",
"95",
"92",
"108",
"83",
"97",
"92",
"90",
"93",
"86",
"70",
"115",
"130",
"123",
"109",
"122",
"92",
"112",
"102",
"132",
"146",
"165",
"167",
"107",
"125",
"113",
"110",
"89",
"82",
"108",
"112",
"101",
"102",
"94",
"100",
"95",
"109",
"82",
"86",
"101",
"86",
"97",
"100",
"112",
"99",
"99",
"102",
"102",
"94",
"116",
"110",
"90",
"103",
"100",
"95",
"96",
"100",
"102",
"84",
"80",
"84",
"92",
"109",
"115",
"92",
"109",
"77",
"90",
"84",
"95",
"91",
"86",
"61",
"92",
"88",
"100",
"89",
"94",
"87",
"91",
"94",
"108",
"107",
"118",
"143",
"429",
"1719",
"5389",
"9613",
"11835",
"8456",
"3686",
"1053",
"245",
"113",
"91",
"70",
"107",
"94",
"87",
"78",
"87",
"81",
"87",
"79",
"105",
"99",
"113",
"218",
"551",
"1244",
"1720",
"1603",
"1170",
"624",
"325",
"197",
"138",
"76",
"60",
"64",
"68",
"67",
"73",
"49",
"63",
"50",
"71",
"64",
"61",
"50",
"61",
"55",
"55",
"58",
"60",
"63",
"55",
"65",
"74",
"57",
"62",
"51",
"61",
"53",
"49",
"67",
"67",
"65",
"62",
"55",
"50",
"62",
"68",
"41",
"55",
"74",
"70",
"75",
"62",
"68",
"76",
"67",
"77",
"86",
"115",
"109",
"160",
"194",
"264",
"336",
"375",
"345",
"357",
"312",
"260",
"194",
"156",
"112",
"104",
"80",
"94",
"130",
"146",
"174",
"226",
"206",
"141",
"70",
"62",
"43",
"44651",
"Channel_info_start",
"Channel : Mg",
"Points : 0",
"Range : 0.000000 - 0.000000",
"Step : 0.010000",
"Channel_info_end",
"Channel_info_start",
"Channel : Al",
"Points : 0",
"Range : 0.000000 - 0.000000",
"Step : 0.010000",
"Channel_info_end",
"Channel_info_start",
"Channel : Si",
"Points : 0",
"Range : 0.000000 - 0.000000",
"Step : 0.010000",
"Channel_info_end",
"Channel_info_start",
"Channel : P ",
"Points : 0",
"Range : 0.000000 - 0.000000",
"Step : 0.010000",
"Channel_info_end",
"Channel_info_start",
"Channel : S ",
"Points : 0",
"Range : 0.000000 - 0.000000",
"Step : 0.010000",
"Channel_info_end",
"Channel_info_start",
"Channel : Cl",
"Points : 0",
"Range : 0.000000 - 0.000000",
"Step : 0.010000",
"Channel_info_end",
"Channel_info_start",
"Channel : K ",
"Points : 0",
"Range : 0.000000 - 0.000000",
"Step : 0.010000",
"Channel_info_end",
"Channel_info_start",
"Channel : Ca",
"Points : 0",
"Range : 0.000000 - 0.000000",
"Step : 0.010000",
"Channel_info_end",
"Channel_info_start",
"Channel : Ti",
"Points : 0",
"Range : 0.000000 - 0.000000",
"Step : 0.010000",
"Channel_info_end",
"Channel_info_start",
"Channel : V ",
"Points : 0",
"Range : 0.000000 - 0.000000",
"Step : 0.010000",
"Channel_info_end",
"Channel_info_start",
"Channel : Cr",
"Points : 0",
"Range : 0.000000 - 0.000000",
"Step : 0.010000",
"Channel_info_end",
"Channel_info_start",
"Channel : Mn",
"Points : 0",
"Range : 0.000000 - 0.000000",
"Step : 0.010000",
"Channel_info_end",
"Channel_info_start",
"Channel : Fe",
"Points : 0",
"Range : 0.000000 - 0.000000",
"Step : 0.010000",
"Channel_info_end",
"Channel_info_start",
"Channel : Cu",
"Points : 0",
"Range : 0.000000 - 0.000000",
"Step : 0.010000",
"Channel_info_end",
"Channel_info_start",
"Channel : Zn",
"Points : 0",
"Range : 0.000000 - 0.000000",
"Step : 0.010000",
"Channel_info_end",
"Channel_info_start",
"Channel : Sr",
"Points : 0",
"Range : 0.000000 - 0.000000",
"Step : 0.010000",
"Channel_info_end",
"Channel_info_start",
"Channel : Pb",
"Points : 0",
"Range : 0.000000 - 0.000000",
"Step : 0.010000",
"Channel_info_end",
"",
"Qualitative Result",
"--------------------------------------------------------------------------------",
"Element :  Al, Rb, P , I , Ca",
"",
"Peak List",
"--------------------------------------------------------------------------------",
"Channel               Line        keV     Net Int.(cps/uA)",
"--------------------------------------------------------------------------------",
"Na                    AlKa         1.48     0.012",
"                      RbLa         1.72     0.251",
"                      P Ka         1.99     0.018",
"                      I LL         3.48     0.038",
"                      CaKa         3.68     0.254",
"                      I La         3.94     1.771",
"                      CaKb         4.01     0.036",
"                      I Lb1        4.23     1.136",
"                      I Lb2        4.52     0.225",
"                      I Lg1        4.80     0.123",
"                      I Lg2        5.04     0.069",
"                      RbKa        13.36     5.467",
"                      RbKb        14.93     0.855",
"                      ----        19.12     0.149",
"                      ----        19.44     0.063",
"                      ----        19.97     0.051",
"--------------------------------------------------------------------------------",
"",
"Quantitative Result",
"--------------------------------------------------------------------------------",
"Analyte               Result             Std.Dev. Proc.-Calc. Line Intensity(cps/uA)",
"--------------------------------------------------------------------------------",
"====[No. 1 Layer]====< Layer1               >===============================",
"Layer1                   0.000 ug/cm2    -------- Flux       -------- --------",