File: inputs/edxCalibration/edx_raw/2010-06/Rh 15765.20100525235352.csv
"Sample    : Rh 15765",
"Operator  : luisf",
"Comment  : cubatao-g-policarbonato",
"Group     : kerr2007ag180cal_lt",
"Date       : 2010-05-25 23:49:38",
"",
"Mesurement Condition",
"------------------------------------------------------------------------------------",
"Instrument : 700HS2   Atmosphere : Vac.   Collimator : 10(mm)   Spin : No",
"------------------------------------------------------------------------------------",
"Analyte               TG kV   uA      FI Acq.(keV)  Anal.(keV)  Time(sec)     DT(%)",
"------------------------------------------------------------------------------------",
"Na                    Rh 50  393-Auto Al  0 - 20    0.8 - 1.2   Live -  179   15",
"",
"<Profile>",
"Channel_info_start",
"Channel : Na",
"Points : 2048",
"Range : 0.000000 - 20.48",
"Step : 0.010000",
"Channel_info_end",
"0",
"0",
"0",
"0",
"1",
"53",
"40",
"52",
"49",
"54",
"42",
"64",
"48",
"128",
"151",
"91",
"90",
"69",
"93",
"82",
"69",
"64",
"68",
"65",
"60",
"60",
"66",
"67",
"80",
"142",
"104",
"102",
"127",
"276",
"455",
"354",
"363",
"1014",
"5462",
"6787",
"3726",
"3697",
"1533",
"832",
"438",
"337",
"129",
"122",
"195",
"130",
"68",
"171",
"598",
"867",
"286",
"114",
"80",
"161",
"132",
"58",
"49",
"72",
"62",
"80",
"67",
"98",
"77",
"82",
"68",
"61",
"60",
"66",
"68",
"85",
"66",
"67",
"73",
"95",
"94",
"84",
"117",
"117",
"138",
"154",
"141",
"117",
"118",
"128",
"114",
"137",
"144",
"155",
"177",
"189",
"190",
"243",
"232",
"254",
"227",
"221",
"230",
"200",
"154",
"168",
"152",
"146",
"157",
"136",
"144",
"148",
"143",
"178",
"161",
"164",
"180",
"195",
"177",
"176",
"159",
"171",
"163",
"170",
"205",
"243",
"250",
"217",
"181",
"223",
"252",
"196",
"193",
"208",
"170",
"231",
"158",
"190",
"178",
"164",
"158",
"177",
"176",
"191",
"158",
"194",
"182",
"148",
"170",
"169",
"158",
"173",
"187",
"169",
"189",
"175",
"145",
"168",
"159",
"164",
"154",
"141",
"165",
"157",
"136",
"146",
"146",
"122",
"151",
"163",
"177",
"156",
"149",
"152",
"169",
"166",
"165",
"161",
"166",
"175",
"139",
"180",
"146",
"149",
"137",
"118",
"143",
"156",
"103",
"126",
"139",
"133",
"136",
"129",
"140",
"122",
"119",
"123",
"131",
"136",
"126",
"119",
"113",
"141",
"143",
"144",
"108",
"129",
"93",
"122",
"124",
"108",
"128",
"118",
"107",
"98",
"130",
"114",
"119",
"124",
"115",
"113",
"104",
"139",
"132",
"104",
"114",
"119",
"94",
"98",
"119",
"116",
"98",
"80",
"103",
"100",
"99",
"111",
"106",
"100",
"81",
"81",
"108",
"107",
"99",
"110",
"105",
"111",
"97",
"107",
"103",
"102",
"111",
"91",
"91",
"102",
"100",
"89",
"125",
"101",
"103",
"127",
"107",
"112",
"125",
"132",
"126",
"132",
"148",
"189",
"227",
"286",
"346",
"467",
"551",
"606",
"616",
"583",
"512",
"458",
"355",
"336",
"245",
"232",
"352",
"887",
"2148",
"3912",
"5572",
"6749",
"6120",
"3631",
"1711",
"615",
"192",
"84207",
"Channel_info_start",
"Channel : Mg",
"Points : 0",
"Range : 0.000000 - 0.000000",
"Step : 0.010000",
"Channel_info_end",
"Channel_info_start",
"Channel : Al",
"Points : 0",
"Range : 0.000000 - 0.000000",
"Step : 0.010000",
"Channel_info_end",
"Channel_info_start",
"Channel : Si",
"Points : 0",
"Range : 0.000000 - 0.000000",
"Step : 0.010000",
"Channel_info_end",
"Channel_info_start",
"Channel : P ",
"Points : 0",
"Range : 0.000000 - 0.000000",
"Step : 0.010000",
"Channel_info_end",
"Channel_info_start",
"Channel : S ",
"Points : 0",
"Range : 0.000000 - 0.000000",
"Step : 0.010000",
"Channel_info_end",
"Channel_info_start",
"Channel : Cl",
"Points : 0",
"Range : 0.000000 - 0.000000",
"Step : 0.010000",
"Channel_info_end",
"Channel_info_start",
"Channel : K ",
"Points : 0",
"Range : 0.000000 - 0.000000",
"Step : 0.010000",
"Channel_info_end",
"Channel_info_start",
"Channel : Ca",
"Points : 0",
"Range : 0.000000 - 0.000000",
"Step : 0.010000",
"Channel_info_end",
"Channel_info_start",
"Channel : Ti",
"Points : 0",
"Range : 0.000000 - 0.000000",
"Step : 0.010000",
"Channel_info_end",
"Channel_info_start",
"Channel : V ",
"Points : 0",
"Range : 0.000000 - 0.000000",
"Step : 0.010000",
"Channel_info_end",
"Channel_info_start",
"Channel : Cr",
"Points : 0",
"Range : 0.000000 - 0.000000",
"Step : 0.010000",
"Channel_info_end",
"Channel_info_start",
"Channel : Mn",
"Points : 0",
"Range : 0.000000 - 0.000000",
"Step : 0.010000",
"Channel_info_end",
"Channel_info_start",
"Channel : Fe",
"Points : 0",
"Range : 0.000000 - 0.000000",
"Step : 0.010000",
"Channel_info_end",
"Channel_info_start",
"Channel : Cu",
"Points : 0",
"Range : 0.000000 - 0.000000",
"Step : 0.010000",
"Channel_info_end",
"Channel_info_start",
"Channel : Zn",
"Points : 0",
"Range : 0.000000 - 0.000000",
"Step : 0.010000",
"Channel_info_end",
"Channel_info_start",
"Channel : Sr",
"Points : 0",
"Range : 0.000000 - 0.000000",
"Step : 0.010000",
"Channel_info_end",
"Channel_info_start",
"Channel : Pb",
"Points : 0",
"Range : 0.000000 - 0.000000",
"Step : 0.010000",
"Channel_info_end",
"",
"Qualitative Result",
"--------------------------------------------------------------------------------",
"Element :  Zn, P , Cd, K , Ca, Ru",
"",
"Peak List",
"--------------------------------------------------------------------------------",
"Channel               Line        keV     Net Int.(cps/uA)",
"--------------------------------------------------------------------------------",
"Na                    ZnLa         0.96     0.020",
"                      P Ka         2.00     0.012",
"                      ----         2.38     0.054",
"                      CdLL         2.70     1.365",
"                      ----         2.87     0.599",
"                      CdLa         3.17     0.025",
"                      CdLb1        3.36     0.012",
"                      K Ka         3.36     0.011",
"                      K Kb         3.59     0.002",
"                      CaKa         3.69     0.170",
"                      CaKb         4.00     0.020",
"                      ----         6.80     0.026",
"                      ----         8.60     0.023",
"                      RuKa        19.21     0.132",
"--------------------------------------------------------------------------------",
"",
"Quantitative Result",
"--------------------------------------------------------------------------------",
"Analyte               Result             Std.Dev. Proc.-Calc. Line Intensity(cps/uA)",
"--------------------------------------------------------------------------------",
"====[No. 1 Layer]====< Layer1               >===============================",
"Layer1                   0.000 ug/cm2    -------- Flux       -------- --------",