File: inputs/edxCalibration/edx_raw/2010-06/Sb 15767.20100526000614.csv
"Sample    : Sb 15767",
"Operator  : luisf",
"Comment  : cubatao-g-policarbonato",
"Group     : kerr2007ag180cal_lt",
"Date       : 2010-05-26 00:02:00",
"",
"Mesurement Condition",
"------------------------------------------------------------------------------------",
"Instrument : 700HS2   Atmosphere : Vac.   Collimator : 10(mm)   Spin : No",
"------------------------------------------------------------------------------------",
"Analyte               TG kV   uA      FI Acq.(keV)  Anal.(keV)  Time(sec)     DT(%)",
"------------------------------------------------------------------------------------",
"Na                    Rh 50  393-Auto Al  0 - 20    0.8 - 1.2   Live -  179   16",
"",
"<Profile>",
"Channel_info_start",
"Channel : Na",
"Points : 2048",
"Range : 0.000000 - 20.48",
"Step : 0.010000",
"Channel_info_end",
"0",
"0",
"0",
"0",
"0",
"46",
"52",
"38",
"33",
"51",
"44",
"59",
"44",
"36",
"48",
"51",
"47",
"57",
"47",
"48",
"48",
"66",
"50",
"56",
"51",
"118",
"177",
"220",
"116",
"145",
"180",
"120",
"91",
"68",
"63",
"52",
"59",
"69",
"63",
"70",
"59",
"73",
"75",
"125",
"195",
"566",
"644",
"280",
"292",
"526",
"2318",
"11633",
"12052",
"3697",
"4145",
"9217",
"5982",
"2463",
"1771",
"1882",
"652",
"588",
"998",
"640",
"305",
"637",
"682",
"286",
"114",
"57",
"55",
"74",
"63",
"92",
"85",
"86",
"85",
"101",
"85",
"89",
"86",
"81",
"82",
"150",
"145",
"151",
"155",
"153",
"161",
"169",
"140",
"152",
"142",
"124",
"120",
"151",
"129",
"142",
"128",
"155",
"148",
"170",
"164",
"175",
"190",
"179",
"168",
"197",
"179",
"211",
"216",
"220",
"252",
"237",
"238",
"275",
"180",
"191",
"156",
"166",
"140",
"190",
"216",
"235",
"181",
"204",
"155",
"196",
"198",
"213",
"196",
"213",
"193",
"232",
"172",
"202",
"186",
"169",
"161",
"161",
"149",
"164",
"158",
"200",
"173",
"164",
"163",
"178",
"179",
"198",
"154",
"184",
"172",
"155",
"190",
"177",
"189",
"144",
"157",
"166",
"157",
"185",
"157",
"153",
"163",
"141",
"175",
"157",
"168",
"167",
"154",
"164",
"134",
"153",
"144",
"157",
"172",
"163",
"153",
"166",
"117",
"122",
"126",
"118",
"143",
"154",
"134",
"148",
"138",
"141",
"142",
"153",
"142",
"130",
"125",
"155",
"145",
"134",
"117",
"142",
"117",
"109",
"110",
"137",
"115",
"134",
"118",
"132",
"109",
"128",
"110",
"105",
"120",
"116",
"108",
"113",
"110",
"114",
"118",
"114",
"107",
"110",
"98",
"103",
"91",
"109",
"109",
"97",
"103",
"86",
"90",
"114",
"115",
"107",
"108",
"99",
"97",
"119",
"116",
"119",
"97",
"111",
"82",
"83",
"85",
"89",
"74",
"96",
"89",
"86",
"98",
"105",
"103",
"102",
"113",
"111",
"116",
"96",
"101",
"104",
"110",
"125",
"104",
"118",
"146",
"113",
"145",
"186",
"203",
"259",
"334",
"440",
"495",
"528",
"540",
"580",
"524",
"420",
"346",
"314",
"226",
"207",
"129",
"164",
"225",
"289",
"344",
"391",
"362",
"238",
"137",
"107",
"71",
"127424",
"Channel_info_start",
"Channel : Mg",
"Points : 0",
"Range : 0.000000 - 0.000000",
"Step : 0.010000",
"Channel_info_end",
"Channel_info_start",
"Channel : Al",
"Points : 0",
"Range : 0.000000 - 0.000000",
"Step : 0.010000",
"Channel_info_end",
"Channel_info_start",
"Channel : Si",
"Points : 0",
"Range : 0.000000 - 0.000000",
"Step : 0.010000",
"Channel_info_end",
"Channel_info_start",
"Channel : P ",
"Points : 0",
"Range : 0.000000 - 0.000000",
"Step : 0.010000",
"Channel_info_end",
"Channel_info_start",
"Channel : S ",
"Points : 0",
"Range : 0.000000 - 0.000000",
"Step : 0.010000",
"Channel_info_end",
"Channel_info_start",
"Channel : Cl",
"Points : 0",
"Range : 0.000000 - 0.000000",
"Step : 0.010000",
"Channel_info_end",
"Channel_info_start",
"Channel : K ",
"Points : 0",
"Range : 0.000000 - 0.000000",
"Step : 0.010000",
"Channel_info_end",
"Channel_info_start",
"Channel : Ca",
"Points : 0",
"Range : 0.000000 - 0.000000",
"Step : 0.010000",
"Channel_info_end",
"Channel_info_start",
"Channel : Ti",
"Points : 0",
"Range : 0.000000 - 0.000000",
"Step : 0.010000",
"Channel_info_end",
"Channel_info_start",
"Channel : V ",
"Points : 0",
"Range : 0.000000 - 0.000000",
"Step : 0.010000",
"Channel_info_end",
"Channel_info_start",
"Channel : Cr",
"Points : 0",
"Range : 0.000000 - 0.000000",
"Step : 0.010000",
"Channel_info_end",
"Channel_info_start",
"Channel : Mn",
"Points : 0",
"Range : 0.000000 - 0.000000",
"Step : 0.010000",
"Channel_info_end",
"Channel_info_start",
"Channel : Fe",
"Points : 0",
"Range : 0.000000 - 0.000000",
"Step : 0.010000",
"Channel_info_end",
"Channel_info_start",
"Channel : Cu",
"Points : 0",
"Range : 0.000000 - 0.000000",
"Step : 0.010000",
"Channel_info_end",
"Channel_info_start",
"Channel : Zn",
"Points : 0",
"Range : 0.000000 - 0.000000",
"Step : 0.010000",
"Channel_info_end",
"Channel_info_start",
"Channel : Sr",
"Points : 0",
"Range : 0.000000 - 0.000000",
"Step : 0.010000",
"Channel_info_end",
"Channel_info_start",
"Channel : Pb",
"Points : 0",
"Range : 0.000000 - 0.000000",
"Step : 0.010000",
"Channel_info_end",
"",
"Qualitative Result",
"--------------------------------------------------------------------------------",
"Element :  Sb, Rh",
"",
"Peak List",
"--------------------------------------------------------------------------------",
"Channel               Line        keV     Net Int.(cps/uA)",
"--------------------------------------------------------------------------------",
"Na                    ----         1.86     0.028",
"                      ----         2.10     0.021",
"                      SbLL         3.19     0.090",
"                      SbLa         3.60     2.696",
"                      SbLb1        3.86     1.677",
"                      SbLb2        4.12     0.277",
"                      SbLg1        4.34     0.125",
"                      SbLg2        4.60     0.103",
"                      RhKaC       19.19     0.121",
"                      ----        19.48     0.052",
"                      RhKa        20.07     0.089",
"--------------------------------------------------------------------------------",
"",
"Quantitative Result",
"--------------------------------------------------------------------------------",
"Analyte               Result             Std.Dev. Proc.-Calc. Line Intensity(cps/uA)",
"--------------------------------------------------------------------------------",
"====[No. 1 Layer]====< Layer1               >===============================",
"Layer1                   0.000 ug/cm2    -------- Flux       -------- --------",