File: inputs/edxCalibration/edx_raw/2010-06/Sb 15767.20100626141658.csv
"Sample    : Sb 15767",
"Operator  : thiago",
"Comment  : cubatao-g-policarbonato",
"Group     : kerr2007ag180cal_lt",
"Date       : 2010-06-26 14:12:44",
"",
"Mesurement Condition",
"------------------------------------------------------------------------------------",
"Instrument : 700HS2   Atmosphere : Vac.   Collimator : 10(mm)   Spin : No",
"------------------------------------------------------------------------------------",
"Analyte               TG kV   uA      FI Acq.(keV)  Anal.(keV)  Time(sec)     DT(%)",
"------------------------------------------------------------------------------------",
"Na                    Rh 50  393-Auto Al  0 - 20    0.8 - 1.2   Live -  180   15",
"",
"<Profile>",
"Channel_info_start",
"Channel : Na",
"Points : 2048",
"Range : 0.000000 - 20.48",
"Step : 0.010000",
"Channel_info_end",
"0",
"0",
"0",
"0",
"1",
"44",
"50",
"54",
"47",
"48",
"42",
"51",
"43",
"50",
"46",
"56",
"36",
"38",
"40",
"46",
"55",
"71",
"58",
"66",
"74",
"81",
"162",
"203",
"119",
"149",
"149",
"126",
"71",
"75",
"58",
"56",
"64",
"67",
"54",
"59",
"69",
"88",
"86",
"109",
"173",
"498",
"576",
"298",
"293",
"505",
"2079",
"11220",
"12387",
"3829",
"3869",
"8867",
"6348",
"2604",
"1608",
"1869",
"682",
"477",
"980",
"631",
"281",
"602",
"680",
"307",
"127",
"60",
"49",
"63",
"75",
"73",
"87",
"97",
"91",
"97",
"72",
"73",
"88",
"87",
"114",
"120",
"134",
"120",
"143",
"153",
"162",
"170",
"167",
"185",
"154",
"147",
"122",
"130",
"120",
"150",
"143",
"165",
"177",
"186",
"170",
"191",
"165",
"186",
"174",
"218",
"191",
"209",
"242",
"235",
"201",
"240",
"225",
"220",
"194",
"166",
"168",
"176",
"173",
"212",
"189",
"238",
"212",
"202",
"156",
"166",
"185",
"182",
"192",
"206",
"191",
"192",
"178",
"192",
"170",
"155",
"168",
"171",
"152",
"157",
"162",
"155",
"177",
"151",
"170",
"170",
"146",
"163",
"165",
"155",
"179",
"162",
"173",
"173",
"204",
"186",
"158",
"169",
"166",
"188",
"143",
"145",
"170",
"133",
"135",
"151",
"152",
"161",
"129",
"164",
"147",
"156",
"119",
"162",
"128",
"164",
"135",
"128",
"131",
"127",
"132",
"135",
"151",
"161",
"129",
"158",
"132",
"129",
"138",
"145",
"153",
"139",
"145",
"131",
"132",
"135",
"140",
"123",
"133",
"125",
"109",
"133",
"132",
"102",
"123",
"120",
"118",
"133",
"122",
"130",
"135",
"137",
"118",
"137",
"111",
"106",
"99",
"86",
"116",
"114",
"104",
"131",
"98",
"105",
"105",
"115",
"104",
"99",
"95",
"100",
"88",
"94",
"103",
"99",
"96",
"88",
"100",
"106",
"111",
"93",
"95",
"104",
"98",
"96",
"88",
"96",
"81",
"103",
"73",
"98",
"99",
"94",
"84",
"96",
"104",
"99",
"95",
"105",
"98",
"102",
"108",
"105",
"133",
"144",
"155",
"175",
"201",
"250",
"318",
"405",
"494",
"542",
"567",
"624",
"554",
"501",
"359",
"259",
"239",
"170",
"174",
"161",
"187",
"267",
"329",
"379",
"403",
"236",
"143",
"93",
"91",
"128320",
"Channel_info_start",
"Channel : Mg",
"Points : 0",
"Range : 0.000000 - 0.000000",
"Step : 0.010000",
"Channel_info_end",
"Channel_info_start",
"Channel : Al",
"Points : 0",
"Range : 0.000000 - 0.000000",
"Step : 0.010000",
"Channel_info_end",
"Channel_info_start",
"Channel : Si",
"Points : 0",
"Range : 0.000000 - 0.000000",
"Step : 0.010000",
"Channel_info_end",
"Channel_info_start",
"Channel : P ",
"Points : 0",
"Range : 0.000000 - 0.000000",
"Step : 0.010000",
"Channel_info_end",
"Channel_info_start",
"Channel : S ",
"Points : 0",
"Range : 0.000000 - 0.000000",
"Step : 0.010000",
"Channel_info_end",
"Channel_info_start",
"Channel : Cl",
"Points : 0",
"Range : 0.000000 - 0.000000",
"Step : 0.010000",
"Channel_info_end",
"Channel_info_start",
"Channel : K ",
"Points : 0",
"Range : 0.000000 - 0.000000",
"Step : 0.010000",
"Channel_info_end",
"Channel_info_start",
"Channel : Ca",
"Points : 0",
"Range : 0.000000 - 0.000000",
"Step : 0.010000",
"Channel_info_end",
"Channel_info_start",
"Channel : Ti",
"Points : 0",
"Range : 0.000000 - 0.000000",
"Step : 0.010000",
"Channel_info_end",
"Channel_info_start",
"Channel : V ",
"Points : 0",
"Range : 0.000000 - 0.000000",
"Step : 0.010000",
"Channel_info_end",
"Channel_info_start",
"Channel : Cr",
"Points : 0",
"Range : 0.000000 - 0.000000",
"Step : 0.010000",
"Channel_info_end",
"Channel_info_start",
"Channel : Mn",
"Points : 0",
"Range : 0.000000 - 0.000000",
"Step : 0.010000",
"Channel_info_end",
"Channel_info_start",
"Channel : Fe",
"Points : 0",
"Range : 0.000000 - 0.000000",
"Step : 0.010000",
"Channel_info_end",
"Channel_info_start",
"Channel : Cu",
"Points : 0",
"Range : 0.000000 - 0.000000",
"Step : 0.010000",
"Channel_info_end",
"Channel_info_start",
"Channel : Zn",
"Points : 0",
"Range : 0.000000 - 0.000000",
"Step : 0.010000",
"Channel_info_end",
"Channel_info_start",
"Channel : Sr",
"Points : 0",
"Range : 0.000000 - 0.000000",
"Step : 0.010000",
"Channel_info_end",
"Channel_info_start",
"Channel : Pb",
"Points : 0",
"Range : 0.000000 - 0.000000",
"Step : 0.010000",
"Channel_info_end",
"",
"Qualitative Result",
"--------------------------------------------------------------------------------",
"Element :  Sb, Rh",
"",
"Peak List",
"--------------------------------------------------------------------------------",
"Channel               Line        keV     Net Int.(cps/uA)",
"--------------------------------------------------------------------------------",
"Na                    SbLaESC      1.87     0.024",
"                      ----         2.12     0.018",
"                      SbLL         3.20     0.100",
"                      SbLa         3.60     2.639",
"                      SbLb1        3.86     1.646",
"                      SbLb2        4.12     0.278",
"                      SbLg1        4.36     0.131",
"                      SbLg2        4.60     0.103",
"                      RhKaC       19.16     0.136",
"                      ----        19.44     0.072",
"                      RhKa        20.08     0.093",
"--------------------------------------------------------------------------------",
"",
"Quantitative Result",
"--------------------------------------------------------------------------------",
"Analyte               Result             Std.Dev. Proc.-Calc. Line Intensity(cps/uA)",
"--------------------------------------------------------------------------------",
"====[No. 1 Layer]====< Layer1               >===============================",
"Layer1                   0.000 ug/cm2    -------- Flux       -------- --------",