File: inputs/edxCalibration/edx_raw/2010-06/Sb 31509.20100526003038.csv
"Sample    : Sb 31509",
"Operator  : luisf",
"Comment  : cubatao-g-policarbonato",
"Group     : kerr2007ag180cal_lt",
"Date       : 2010-05-26 00:24:35",
"",
"Mesurement Condition",
"------------------------------------------------------------------------------------",
"Instrument : 700HS2   Atmosphere : Vac.   Collimator : 10(mm)   Spin : No",
"------------------------------------------------------------------------------------",
"Analyte               TG kV   uA      FI Acq.(keV)  Anal.(keV)  Time(sec)     DT(%)",
"------------------------------------------------------------------------------------",
"Na                    Rh 50  360-Auto Al  0 - 20    0.8 - 1.2   Live -  179   15",
"",
"<Profile>",
"Channel_info_start",
"Channel : Na",
"Points : 2048",
"Range : 0.000000 - 20.48",
"Step : 0.010000",
"Channel_info_end",
"0",
"0",
"0",
"0",
"2",
"34",
"35",
"42",
"45",
"47",
"40",
"41",
"37",
"45",
"33",
"51",
"47",
"48",
"38",
"41",
"51",
"58",
"57",
"49",
"50",
"77",
"176",
"224",
"127",
"168",
"164",
"115",
"97",
"61",
"57",
"56",
"45",
"64",
"52",
"82",
"61",
"94",
"95",
"107",
"170",
"552",
"598",
"303",
"290",
"548",
"2284",
"11354",
"11907",
"4055",
"4220",
"8963",
"5936",
"2444",
"1779",
"1742",
"630",
"505",
"930",
"612",
"342",
"625",
"678",
"293",
"102",
"61",
"65",
"70",
"79",
"91",
"106",
"111",
"140",
"95",
"82",
"76",
"56",
"71",
"70",
"109",
"103",
"115",
"137",
"122",
"152",
"156",
"148",
"145",
"135",
"130",
"118",
"132",
"161",
"131",
"142",
"149",
"185",
"163",
"171",
"169",
"187",
"175",
"176",
"191",
"168",
"182",
"156",
"167",
"175",
"179",
"211",
"241",
"155",
"145",
"140",
"182",
"154",
"212",
"189",
"243",
"212",
"183",
"167",
"184",
"212",
"209",
"179",
"210",
"177",
"185",
"189",
"182",
"149",
"146",
"115",
"131",
"134",
"123",
"144",
"150",
"144",
"148",
"148",
"159",
"139",
"151",
"148",
"175",
"180",
"155",
"169",
"175",
"155",
"154",
"146",
"148",
"162",
"149",
"138",
"144",
"155",
"158",
"148",
"144",
"152",
"140",
"143",
"140",
"123",
"132",
"121",
"134",
"149",
"137",
"117",
"146",
"118",
"138",
"117",
"122",
"144",
"135",
"109",
"148",
"133",
"124",
"117",
"123",
"123",
"113",
"110",
"119",
"124",
"130",
"110",
"106",
"115",
"103",
"99",
"102",
"126",
"107",
"99",
"108",
"107",
"85",
"96",
"114",
"109",
"110",
"84",
"79",
"122",
"98",
"98",
"127",
"103",
"103",
"96",
"117",
"99",
"99",
"101",
"97",
"96",
"83",
"95",
"106",
"103",
"82",
"94",
"89",
"93",
"69",
"83",
"78",
"105",
"77",
"85",
"94",
"91",
"98",
"76",
"90",
"86",
"76",
"94",
"81",
"82",
"83",
"86",
"77",
"93",
"106",
"85",
"97",
"101",
"97",
"108",
"107",
"101",
"120",
"124",
"149",
"200",
"252",
"329",
"359",
"480",
"517",
"504",
"574",
"463",
"408",
"301",
"235",
"189",
"164",
"130",
"149",
"177",
"249",
"339",
"418",
"347",
"208",
"119",
"107",
"79",
"121316",
"Channel_info_start",
"Channel : Mg",
"Points : 0",
"Range : 0.000000 - 0.000000",
"Step : 0.010000",
"Channel_info_end",
"Channel_info_start",
"Channel : Al",
"Points : 0",
"Range : 0.000000 - 0.000000",
"Step : 0.010000",
"Channel_info_end",
"Channel_info_start",
"Channel : Si",
"Points : 0",
"Range : 0.000000 - 0.000000",
"Step : 0.010000",
"Channel_info_end",
"Channel_info_start",
"Channel : P ",
"Points : 0",
"Range : 0.000000 - 0.000000",
"Step : 0.010000",
"Channel_info_end",
"Channel_info_start",
"Channel : S ",
"Points : 0",
"Range : 0.000000 - 0.000000",
"Step : 0.010000",
"Channel_info_end",
"Channel_info_start",
"Channel : Cl",
"Points : 0",
"Range : 0.000000 - 0.000000",
"Step : 0.010000",
"Channel_info_end",
"Channel_info_start",
"Channel : K ",
"Points : 0",
"Range : 0.000000 - 0.000000",
"Step : 0.010000",
"Channel_info_end",
"Channel_info_start",
"Channel : Ca",
"Points : 0",
"Range : 0.000000 - 0.000000",
"Step : 0.010000",
"Channel_info_end",
"Channel_info_start",
"Channel : Ti",
"Points : 0",
"Range : 0.000000 - 0.000000",
"Step : 0.010000",
"Channel_info_end",
"Channel_info_start",
"Channel : V ",
"Points : 0",
"Range : 0.000000 - 0.000000",
"Step : 0.010000",
"Channel_info_end",
"Channel_info_start",
"Channel : Cr",
"Points : 0",
"Range : 0.000000 - 0.000000",
"Step : 0.010000",
"Channel_info_end",
"Channel_info_start",
"Channel : Mn",
"Points : 0",
"Range : 0.000000 - 0.000000",
"Step : 0.010000",
"Channel_info_end",
"Channel_info_start",
"Channel : Fe",
"Points : 0",
"Range : 0.000000 - 0.000000",
"Step : 0.010000",
"Channel_info_end",
"Channel_info_start",
"Channel : Cu",
"Points : 0",
"Range : 0.000000 - 0.000000",
"Step : 0.010000",
"Channel_info_end",
"Channel_info_start",
"Channel : Zn",
"Points : 0",
"Range : 0.000000 - 0.000000",
"Step : 0.010000",
"Channel_info_end",
"Channel_info_start",
"Channel : Sr",
"Points : 0",
"Range : 0.000000 - 0.000000",
"Step : 0.010000",
"Channel_info_end",
"Channel_info_start",
"Channel : Pb",
"Points : 0",
"Range : 0.000000 - 0.000000",
"Step : 0.010000",
"Channel_info_end",
"",
"Qualitative Result",
"--------------------------------------------------------------------------------",
"Element :  P , Sb, Te, Ru",
"",
"Peak List",
"--------------------------------------------------------------------------------",
"Channel               Line        keV     Net Int.(cps/uA)",
"--------------------------------------------------------------------------------",
"Na                    ----         1.86     0.030",
"                      P Ka         2.01     0.023",
"                      SbLL         3.20     0.100",
"                      SbLa         3.60     2.851",
"                      SbLb1        3.84     1.454",
"                      TeLa         3.84     0.312",
"                      TeLb4        4.03     0.159",
"                      SbLb2        4.12     0.279",
"                      SbLg1        4.35     0.136",
"                      SbLg2        4.60     0.109",
"                      ----        19.03     0.102",
"                      RuKa        19.25     0.126",
"                      ----        19.94     0.043",
"--------------------------------------------------------------------------------",
"",
"Quantitative Result",
"--------------------------------------------------------------------------------",
"Analyte               Result             Std.Dev. Proc.-Calc. Line Intensity(cps/uA)",
"--------------------------------------------------------------------------------",
"====[No. 1 Layer]====< Layer1               >===============================",
"Layer1                   0.000 ug/cm2    -------- Flux       -------- --------",