File: inputs/edxCalibration/edx_raw/2010-06/Sb 31509.20100626142108.csv
"Sample    : Sb 31509",
"Operator  : thiago",
"Comment  : cubatao-g-policarbonato",
"Group     : kerr2007ag180cal_lt",
"Date       : 2010-06-26 14:16:56",
"",
"Mesurement Condition",
"------------------------------------------------------------------------------------",
"Instrument : 700HS2   Atmosphere : Vac.   Collimator : 10(mm)   Spin : No",
"------------------------------------------------------------------------------------",
"Analyte               TG kV   uA      FI Acq.(keV)  Anal.(keV)  Time(sec)     DT(%)",
"------------------------------------------------------------------------------------",
"Na                    Rh 50  360-Auto Al  0 - 20    0.8 - 1.2   Live -  180   15",
"",
"<Profile>",
"Channel_info_start",
"Channel : Na",
"Points : 2048",
"Range : 0.000000 - 20.48",
"Step : 0.010000",
"Channel_info_end",
"0",
"0",
"0",
"0",
"0",
"34",
"47",
"50",
"29",
"53",
"40",
"44",
"47",
"47",
"32",
"48",
"33",
"38",
"40",
"54",
"50",
"74",
"68",
"58",
"63",
"75",
"156",
"193",
"147",
"188",
"143",
"109",
"48",
"68",
"70",
"61",
"62",
"61",
"64",
"81",
"60",
"99",
"69",
"128",
"180",
"525",
"600",
"274",
"304",
"519",
"2123",
"10827",
"12494",
"4210",
"3912",
"8870",
"6256",
"2516",
"1681",
"1811",
"623",
"510",
"966",
"726",
"296",
"600",
"638",
"298",
"83",
"66",
"53",
"58",
"53",
"79",
"88",
"113",
"96",
"94",
"86",
"77",
"83",
"85",
"81",
"91",
"108",
"140",
"152",
"125",
"113",
"143",
"157",
"159",
"147",
"120",
"117",
"118",
"126",
"131",
"132",
"158",
"159",
"164",
"148",
"200",
"169",
"176",
"163",
"192",
"156",
"163",
"184",
"182",
"191",
"188",
"194",
"209",
"185",
"177",
"161",
"174",
"183",
"167",
"186",
"258",
"229",
"188",
"155",
"204",
"188",
"180",
"182",
"187",
"179",
"192",
"176",
"164",
"143",
"144",
"145",
"138",
"124",
"148",
"132",
"149",
"125",
"124",
"130",
"145",
"150",
"166",
"154",
"173",
"192",
"154",
"157",
"151",
"144",
"156",
"138",
"164",
"142",
"147",
"142",
"133",
"152",
"123",
"131",
"166",
"108",
"131",
"131",
"152",
"149",
"148",
"131",
"142",
"149",
"157",
"122",
"127",
"146",
"140",
"123",
"112",
"113",
"108",
"124",
"130",
"105",
"120",
"128",
"124",
"134",
"117",
"121",
"108",
"108",
"120",
"114",
"120",
"103",
"123",
"98",
"110",
"120",
"118",
"108",
"111",
"128",
"120",
"121",
"107",
"111",
"120",
"95",
"93",
"96",
"112",
"93",
"99",
"91",
"81",
"103",
"93",
"95",
"99",
"96",
"85",
"97",
"106",
"83",
"82",
"95",
"79",
"75",
"91",
"83",
"77",
"62",
"75",
"83",
"103",
"89",
"90",
"82",
"66",
"82",
"85",
"100",
"85",
"91",
"89",
"82",
"65",
"81",
"94",
"105",
"72",
"75",
"111",
"95",
"106",
"86",
"100",
"110",
"111",
"131",
"163",
"200",
"237",
"281",
"399",
"445",
"526",
"514",
"522",
"463",
"413",
"340",
"256",
"210",
"193",
"134",
"139",
"183",
"235",
"302",
"358",
"366",
"241",
"148",
"97",
"85",
"122084",
"Channel_info_start",
"Channel : Mg",
"Points : 0",
"Range : 0.000000 - 0.000000",
"Step : 0.010000",
"Channel_info_end",
"Channel_info_start",
"Channel : Al",
"Points : 0",
"Range : 0.000000 - 0.000000",
"Step : 0.010000",
"Channel_info_end",
"Channel_info_start",
"Channel : Si",
"Points : 0",
"Range : 0.000000 - 0.000000",
"Step : 0.010000",
"Channel_info_end",
"Channel_info_start",
"Channel : P ",
"Points : 0",
"Range : 0.000000 - 0.000000",
"Step : 0.010000",
"Channel_info_end",
"Channel_info_start",
"Channel : S ",
"Points : 0",
"Range : 0.000000 - 0.000000",
"Step : 0.010000",
"Channel_info_end",
"Channel_info_start",
"Channel : Cl",
"Points : 0",
"Range : 0.000000 - 0.000000",
"Step : 0.010000",
"Channel_info_end",
"Channel_info_start",
"Channel : K ",
"Points : 0",
"Range : 0.000000 - 0.000000",
"Step : 0.010000",
"Channel_info_end",
"Channel_info_start",
"Channel : Ca",
"Points : 0",
"Range : 0.000000 - 0.000000",
"Step : 0.010000",
"Channel_info_end",
"Channel_info_start",
"Channel : Ti",
"Points : 0",
"Range : 0.000000 - 0.000000",
"Step : 0.010000",
"Channel_info_end",
"Channel_info_start",
"Channel : V ",
"Points : 0",
"Range : 0.000000 - 0.000000",
"Step : 0.010000",
"Channel_info_end",
"Channel_info_start",
"Channel : Cr",
"Points : 0",
"Range : 0.000000 - 0.000000",
"Step : 0.010000",
"Channel_info_end",
"Channel_info_start",
"Channel : Mn",
"Points : 0",
"Range : 0.000000 - 0.000000",
"Step : 0.010000",
"Channel_info_end",
"Channel_info_start",
"Channel : Fe",
"Points : 0",
"Range : 0.000000 - 0.000000",
"Step : 0.010000",
"Channel_info_end",
"Channel_info_start",
"Channel : Cu",
"Points : 0",
"Range : 0.000000 - 0.000000",
"Step : 0.010000",
"Channel_info_end",
"Channel_info_start",
"Channel : Zn",
"Points : 0",
"Range : 0.000000 - 0.000000",
"Step : 0.010000",
"Channel_info_end",
"Channel_info_start",
"Channel : Sr",
"Points : 0",
"Range : 0.000000 - 0.000000",
"Step : 0.010000",
"Channel_info_end",
"Channel_info_start",
"Channel : Pb",
"Points : 0",
"Range : 0.000000 - 0.000000",
"Step : 0.010000",
"Channel_info_end",
"",
"Qualitative Result",
"--------------------------------------------------------------------------------",
"Element :  Sb, P , Zn, Ru",
"",
"Peak List",
"--------------------------------------------------------------------------------",
"Channel               Line        keV     Net Int.(cps/uA)",
"--------------------------------------------------------------------------------",
"Na                    SbLaESC      1.84     0.028",
"                      P Ka         2.04     0.024",
"                      SbLL         3.20     0.103",
"                      SbLa         3.60     2.854",
"                      SbLb1        3.86     1.778",
"                      SbLb2        4.10     0.318",
"                      SbLg1        4.36     0.138",
"                      SbLg2        4.59     0.112",
"                      ZnKa         8.61     0.024",
"                      RuKa        19.20     0.138",
"                      ----        19.49     0.046",
"                      ----        19.96     0.052",
"--------------------------------------------------------------------------------",
"",
"Quantitative Result",
"--------------------------------------------------------------------------------",
"Analyte               Result             Std.Dev. Proc.-Calc. Line Intensity(cps/uA)",
"--------------------------------------------------------------------------------",
"====[No. 1 Layer]====< Layer1               >===============================",
"Layer1                   0.000 ug/cm2    -------- Flux       -------- --------",