File: inputs/edxCalibration/edx_raw/2010-06/Se 15759.20100611012223.csv
"Sample    : Se 15759",
"Operator  : Luís",
"Comment  : cubatao-g-policarbonato",
"Group     : kerr2007ag180cal_lt",
"Date       : 2010-06-11 01:18:19",
"",
"Mesurement Condition",
"------------------------------------------------------------------------------------",
"Instrument : 700HS2   Atmosphere : Vac.   Collimator : 10(mm)   Spin : No",
"------------------------------------------------------------------------------------",
"Analyte               TG kV   uA      FI Acq.(keV)  Anal.(keV)  Time(sec)     DT(%)",
"------------------------------------------------------------------------------------",
"Na                    Rh 50  168-Auto Al  0 - 20    0.8 - 1.2   Live -  180   15",
"",
"<Profile>",
"Channel_info_start",
"Channel : Na",
"Points : 2048",
"Range : 0.000000 - 20.48",
"Step : 0.010000",
"Channel_info_end",
"0",
"0",
"0",
"0",
"0",
"28",
"29",
"22",
"23",
"23",
"13",
"26",
"10",
"14",
"9",
"15",
"22",
"68",
"83",
"580",
"1357",
"594",
"105",
"24",
"20",
"23",
"16",
"20",
"29",
"33",
"8",
"10",
"18",
"7",
"8",
"13",
"8",
"9",
"16",
"12",
"18",
"14",
"16",
"7",
"8",
"14",
"5",
"21",
"12",
"13",
"10",
"65",
"266",
"386",
"96",
"37",
"47",
"65",
"39",
"22",
"21",
"29",
"23",
"34",
"34",
"37",
"33",
"38",
"31",
"39",
"26",
"26",
"28",
"38",
"25",
"31",
"37",
"40",
"41",
"34",
"34",
"38",
"38",
"47",
"37",
"36",
"53",
"52",
"46",
"62",
"61",
"64",
"78",
"63",
"53",
"58",
"71",
"61",
"66",
"67",
"87",
"80",
"64",
"64",
"74",
"72",
"81",
"87",
"72",
"65",
"66",
"85",
"74",
"80",
"92",
"99",
"69",
"67",
"59",
"80",
"74",
"60",
"91",
"92",
"109",
"84",
"83",
"83",
"85",
"76",
"65",
"69",
"76",
"88",
"77",
"91",
"91",
"81",
"64",
"85",
"79",
"80",
"68",
"77",
"67",
"75",
"74",
"75",
"97",
"74",
"79",
"96",
"98",
"106",
"106",
"149",
"326",
"1835",
"7393",
"18871",
"24103",
"16748",
"6215",
"1416",
"241",
"121",
"86",
"104",
"86",
"92",
"91",
"93",
"90",
"113",
"154",
"285",
"910",
"2359",
"3347",
"3063",
"1620",
"653",
"231",
"96",
"55",
"58",
"48",
"62",
"39",
"38",
"58",
"47",
"51",
"47",
"54",
"47",
"55",
"42",
"51",
"56",
"59",
"54",
"53",
"55",
"51",
"51",
"38",
"48",
"42",
"51",
"43",
"37",
"42",
"48",
"39",
"33",
"33",
"52",
"48",
"52",
"39",
"37",
"29",
"29",
"53",
"29",
"39",
"39",
"39",
"47",
"24",
"46",
"34",
"31",
"47",
"45",
"45",
"29",
"24",
"36",
"35",
"34",
"43",
"42",
"41",
"39",
"40",
"40",
"37",
"43",
"36",
"33",
"40",
"42",
"24",
"35",
"31",
"46",
"33",
"37",
"49",
"43",
"48",
"47",
"55",
"53",
"59",
"81",
"92",
"114",
"137",
"169",
"219",
"208",
"255",
"242",
"182",
"150",
"144",
"119",
"83",
"65",
"51",
"60",
"73",
"93",
"129",
"110",
"113",
"79",
"51",
"48",
"28",
"19401",
"Channel_info_start",
"Channel : Mg",
"Points : 0",
"Range : 0.000000 - 0.000000",
"Step : 0.010000",
"Channel_info_end",
"Channel_info_start",
"Channel : Al",
"Points : 0",
"Range : 0.000000 - 0.000000",
"Step : 0.010000",
"Channel_info_end",
"Channel_info_start",
"Channel : Si",
"Points : 0",
"Range : 0.000000 - 0.000000",
"Step : 0.010000",
"Channel_info_end",
"Channel_info_start",
"Channel : P ",
"Points : 0",
"Range : 0.000000 - 0.000000",
"Step : 0.010000",
"Channel_info_end",
"Channel_info_start",
"Channel : S ",
"Points : 0",
"Range : 0.000000 - 0.000000",
"Step : 0.010000",
"Channel_info_end",
"Channel_info_start",
"Channel : Cl",
"Points : 0",
"Range : 0.000000 - 0.000000",
"Step : 0.010000",
"Channel_info_end",
"Channel_info_start",
"Channel : K ",
"Points : 0",
"Range : 0.000000 - 0.000000",
"Step : 0.010000",
"Channel_info_end",
"Channel_info_start",
"Channel : Ca",
"Points : 0",
"Range : 0.000000 - 0.000000",
"Step : 0.010000",
"Channel_info_end",
"Channel_info_start",
"Channel : Ti",
"Points : 0",
"Range : 0.000000 - 0.000000",
"Step : 0.010000",
"Channel_info_end",
"Channel_info_start",
"Channel : V ",
"Points : 0",
"Range : 0.000000 - 0.000000",
"Step : 0.010000",
"Channel_info_end",
"Channel_info_start",
"Channel : Cr",
"Points : 0",
"Range : 0.000000 - 0.000000",
"Step : 0.010000",
"Channel_info_end",
"Channel_info_start",
"Channel : Mn",
"Points : 0",
"Range : 0.000000 - 0.000000",
"Step : 0.010000",
"Channel_info_end",
"Channel_info_start",
"Channel : Fe",
"Points : 0",
"Range : 0.000000 - 0.000000",
"Step : 0.010000",
"Channel_info_end",
"Channel_info_start",
"Channel : Cu",
"Points : 0",
"Range : 0.000000 - 0.000000",
"Step : 0.010000",
"Channel_info_end",
"Channel_info_start",
"Channel : Zn",
"Points : 0",
"Range : 0.000000 - 0.000000",
"Step : 0.010000",
"Channel_info_end",
"Channel_info_start",
"Channel : Sr",
"Points : 0",
"Range : 0.000000 - 0.000000",
"Step : 0.010000",
"Channel_info_end",
"Channel_info_start",
"Channel : Pb",
"Points : 0",
"Range : 0.000000 - 0.000000",
"Step : 0.010000",
"Channel_info_end",
"",
"Qualitative Result",
"--------------------------------------------------------------------------------",
"Element :  Se, P , Ca, Ru",
"",
"Peak List",
"--------------------------------------------------------------------------------",
"Channel               Line        keV     Net Int.(cps/uA)",
"--------------------------------------------------------------------------------",
"Na                    ----         1.19     0.019",
"                      SeLa         1.40     0.507",
"                      P Ka         2.01     0.012",
"                      CaKa         3.68     0.178",
"                      CaKb         4.00     0.023",
"                      SeKa        11.20    15.112",
"                      SeKb        12.48     2.239",
"                      RuKa        19.23     0.133",
"                      ----        19.47     0.048",
"                      ----        20.02     0.062",
"--------------------------------------------------------------------------------",
"",
"Quantitative Result",
"--------------------------------------------------------------------------------",
"Analyte               Result             Std.Dev. Proc.-Calc. Line Intensity(cps/uA)",
"--------------------------------------------------------------------------------",
"====[No. 1 Layer]====< Layer1               >===============================",
"Layer1                   0.000 ug/cm2    -------- Flux       -------- --------",