File: inputs/edxCalibration/edx_raw/2010-06/SeF2 15754.20100610235218.csv
"Sample    : SeF2 15754",
"Operator  : thiago",
"Comment  : cubatao-g-policarbonato",
"Group     : kerr2007ag180cal_lt",
"Date       : 2010-06-10 23:48:03",
"",
"Mesurement Condition",
"------------------------------------------------------------------------------------",
"Instrument : 700HS2   Atmosphere : Vac.   Collimator : 10(mm)   Spin : No",
"------------------------------------------------------------------------------------",
"Analyte               TG kV   uA      FI Acq.(keV)  Anal.(keV)  Time(sec)     DT(%)",
"------------------------------------------------------------------------------------",
"Na                    Rh 50  596-Auto Al  0 - 20    0.8 - 1.2   Live -  180   16",
"",
"<Profile>",
"Channel_info_start",
"Channel : Na",
"Points : 2048",
"Range : 0.000000 - 20.48",
"Step : 0.010000",
"Channel_info_end",
"0",
"0",
"0",
"0",
"0",
"27",
"33",
"36",
"39",
"34",
"28",
"36",
"24",
"44",
"34",
"26",
"33",
"21",
"27",
"35",
"22",
"41",
"26",
"37",
"49",
"57",
"41",
"57",
"101",
"136",
"48",
"41",
"71",
"198",
"207",
"59",
"37",
"33",
"61",
"65",
"55",
"36",
"50",
"50",
"42",
"64",
"73",
"126",
"113",
"104",
"145",
"344",
"1023",
"1382",
"505",
"329",
"691",
"6584",
"22596",
"20775",
"3935",
"389",
"594",
"2619",
"3291",
"1228",
"196",
"103",
"94",
"94",
"71",
"82",
"99",
"77",
"99",
"88",
"104",
"116",
"101",
"102",
"114",
"126",
"107",
"130",
"127",
"139",
"138",
"141",
"135",
"166",
"160",
"220",
"189",
"158",
"164",
"201",
"203",
"196",
"163",
"214",
"204",
"206",
"183",
"176",
"197",
"195",
"194",
"219",
"150",
"169",
"192",
"208",
"231",
"242",
"235",
"286",
"287",
"281",
"235",
"208",
"174",
"266",
"284",
"321",
"324",
"267",
"240",
"233",
"231",
"205",
"185",
"209",
"220",
"230",
"224",
"210",
"234",
"235",
"217",
"206",
"180",
"173",
"206",
"196",
"196",
"177",
"188",
"185",
"192",
"203",
"193",
"205",
"203",
"208",
"187",
"193",
"181",
"193",
"159",
"174",
"204",
"206",
"143",
"183",
"176",
"194",
"174",
"206",
"195",
"201",
"215",
"181",
"174",
"184",
"169",
"220",
"156",
"178",
"166",
"191",
"180",
"184",
"147",
"192",
"188",
"176",
"170",
"169",
"193",
"157",
"169",
"156",
"150",
"165",
"163",
"172",
"184",
"158",
"168",
"148",
"154",
"150",
"138",
"165",
"136",
"157",
"164",
"161",
"150",
"152",
"128",
"158",
"129",
"133",
"141",
"135",
"158",
"128",
"165",
"154",
"134",
"151",
"158",
"145",
"150",
"149",
"136",
"130",
"154",
"134",
"140",
"142",
"130",
"122",
"129",
"116",
"119",
"134",
"140",
"130",
"127",
"136",
"103",
"131",
"141",
"126",
"108",
"130",
"119",
"114",
"135",
"130",
"125",
"141",
"122",
"112",
"118",
"129",
"140",
"152",
"128",
"166",
"133",
"187",
"180",
"206",
"206",
"262",
"327",
"428",
"517",
"663",
"842",
"828",
"820",
"878",
"781",
"610",
"515",
"384",
"311",
"226",
"191",
"189",
"246",
"279",
"394",
"359",
"370",
"208",
"156",
"122",
"102",
"59954",
"Channel_info_start",
"Channel : Mg",
"Points : 0",
"Range : 0.000000 - 0.000000",
"Step : 0.010000",
"Channel_info_end",
"Channel_info_start",
"Channel : Al",
"Points : 0",
"Range : 0.000000 - 0.000000",
"Step : 0.010000",
"Channel_info_end",
"Channel_info_start",
"Channel : Si",
"Points : 0",
"Range : 0.000000 - 0.000000",
"Step : 0.010000",
"Channel_info_end",
"Channel_info_start",
"Channel : P ",
"Points : 0",
"Range : 0.000000 - 0.000000",
"Step : 0.010000",
"Channel_info_end",
"Channel_info_start",
"Channel : S ",
"Points : 0",
"Range : 0.000000 - 0.000000",
"Step : 0.010000",
"Channel_info_end",
"Channel_info_start",
"Channel : Cl",
"Points : 0",
"Range : 0.000000 - 0.000000",
"Step : 0.010000",
"Channel_info_end",
"Channel_info_start",
"Channel : K ",
"Points : 0",
"Range : 0.000000 - 0.000000",
"Step : 0.010000",
"Channel_info_end",
"Channel_info_start",
"Channel : Ca",
"Points : 0",
"Range : 0.000000 - 0.000000",
"Step : 0.010000",
"Channel_info_end",
"Channel_info_start",
"Channel : Ti",
"Points : 0",
"Range : 0.000000 - 0.000000",
"Step : 0.010000",
"Channel_info_end",
"Channel_info_start",
"Channel : V ",
"Points : 0",
"Range : 0.000000 - 0.000000",
"Step : 0.010000",
"Channel_info_end",
"Channel_info_start",
"Channel : Cr",
"Points : 0",
"Range : 0.000000 - 0.000000",
"Step : 0.010000",
"Channel_info_end",
"Channel_info_start",
"Channel : Mn",
"Points : 0",
"Range : 0.000000 - 0.000000",
"Step : 0.010000",
"Channel_info_end",
"Channel_info_start",
"Channel : Fe",
"Points : 0",
"Range : 0.000000 - 0.000000",
"Step : 0.010000",
"Channel_info_end",
"Channel_info_start",
"Channel : Cu",
"Points : 0",
"Range : 0.000000 - 0.000000",
"Step : 0.010000",
"Channel_info_end",
"Channel_info_start",
"Channel : Zn",
"Points : 0",
"Range : 0.000000 - 0.000000",
"Step : 0.010000",
"Channel_info_end",
"Channel_info_start",
"Channel : Sr",
"Points : 0",
"Range : 0.000000 - 0.000000",
"Step : 0.010000",
"Channel_info_end",
"Channel_info_start",
"Channel : Pb",
"Points : 0",
"Range : 0.000000 - 0.000000",
"Step : 0.010000",
"Channel_info_end",
"",
"Qualitative Result",
"--------------------------------------------------------------------------------",
"Element :  P , Sc, Ca, Zn",
"",
"Peak List",
"--------------------------------------------------------------------------------",
"Channel               Line        keV     Net Int.(cps/uA)",
"--------------------------------------------------------------------------------",
"Na                    P Ka         2.00     0.013",
"                      ScKaESC      2.34     0.029",
"                      CaKa         3.68     0.173",
"                      CaKb         4.01     0.024",
"                      ScKa         4.08     3.433",
"                      ScKb         4.46     0.442",
"                      ZnKa         8.64     0.020",
"                      ----        19.12     0.133",
"                      ----        19.52     0.033",
"                      ----        20.03     0.052",
"--------------------------------------------------------------------------------",
"",
"Quantitative Result",
"--------------------------------------------------------------------------------",
"Analyte               Result             Std.Dev. Proc.-Calc. Line Intensity(cps/uA)",
"--------------------------------------------------------------------------------",
"====[No. 1 Layer]====< Layer1               >===============================",
"Layer1                   0.000 ug/cm2    -------- Flux       -------- --------",