File: inputs/edxCalibration/edx_raw/2010-06/SeF3 15754.20100525210408.csv
"Sample    : SeF3 15754",
"Operator  : luisf",
"Comment  : cubatao-g-policarbonato",
"Group     : kerr2007ag180cal_lt",
"Date       : 2010-05-25 20:59:56",
"",
"Mesurement Condition",
"------------------------------------------------------------------------------------",
"Instrument : 700HS2   Atmosphere : Vac.   Collimator : 10(mm)   Spin : No",
"------------------------------------------------------------------------------------",
"Analyte               TG kV   uA      FI Acq.(keV)  Anal.(keV)  Time(sec)     DT(%)",
"------------------------------------------------------------------------------------",
"Na                    Rh 50  548-Auto Al  0 - 20    0.8 - 1.2   Live -  180   15",
"",
"<Profile>",
"Channel_info_start",
"Channel : Na",
"Points : 2048",
"Range : 0.000000 - 20.48",
"Step : 0.010000",
"Channel_info_end",
"0",
"0",
"0",
"0",
"2",
"22",
"27",
"37",
"28",
"37",
"32",
"26",
"32",
"32",
"32",
"32",
"24",
"37",
"26",
"33",
"29",
"35",
"32",
"32",
"39",
"77",
"35",
"60",
"101",
"114",
"60",
"33",
"64",
"240",
"189",
"51",
"20",
"27",
"60",
"69",
"32",
"49",
"42",
"20",
"34",
"59",
"84",
"145",
"117",
"115",
"139",
"317",
"979",
"1323",
"522",
"272",
"628",
"5802",
"21036",
"18958",
"3739",
"320",
"538",
"2364",
"3113",
"1172",
"193",
"112",
"69",
"63",
"75",
"75",
"70",
"86",
"77",
"72",
"95",
"95",
"85",
"98",
"119",
"105",
"112",
"135",
"109",
"112",
"133",
"155",
"151",
"140",
"161",
"177",
"210",
"201",
"163",
"173",
"187",
"216",
"210",
"196",
"179",
"208",
"158",
"209",
"173",
"181",
"184",
"187",
"170",
"172",
"170",
"198",
"200",
"243",
"261",
"308",
"290",
"243",
"197",
"179",
"188",
"241",
"250",
"279",
"292",
"236",
"217",
"195",
"199",
"184",
"181",
"199",
"198",
"220",
"194",
"206",
"212",
"183",
"209",
"218",
"199",
"201",
"181",
"191",
"161",
"158",
"167",
"186",
"183",
"194",
"183",
"204",
"172",
"175",
"192",
"201",
"172",
"175",
"193",
"173",
"170",
"179",
"158",
"172",
"192",
"177",
"186",
"206",
"161",
"193",
"162",
"188",
"167",
"164",
"150",
"175",
"183",
"160",
"135",
"140",
"157",
"140",
"162",
"159",
"140",
"175",
"168",
"177",
"138",
"156",
"164",
"152",
"155",
"140",
"133",
"146",
"155",
"146",
"124",
"160",
"150",
"145",
"159",
"151",
"162",
"134",
"148",
"122",
"134",
"125",
"132",
"122",
"149",
"146",
"124",
"151",
"134",
"127",
"127",
"133",
"123",
"139",
"142",
"139",
"119",
"111",
"128",
"121",
"123",
"113",
"122",
"117",
"124",
"126",
"111",
"115",
"117",
"126",
"105",
"103",
"123",
"126",
"111",
"120",
"97",
"99",
"113",
"115",
"128",
"128",
"97",
"115",
"117",
"118",
"113",
"105",
"112",
"106",
"115",
"130",
"150",
"117",
"140",
"144",
"184",
"181",
"179",
"232",
"311",
"353",
"480",
"620",
"745",
"809",
"851",
"843",
"719",
"588",
"468",
"365",
"274",
"195",
"176",
"179",
"218",
"258",
"286",
"342",
"308",
"192",
"125",
"99",
"119",
"56652",
"Channel_info_start",
"Channel : Mg",
"Points : 0",
"Range : 0.000000 - 0.000000",
"Step : 0.010000",
"Channel_info_end",
"Channel_info_start",
"Channel : Al",
"Points : 0",
"Range : 0.000000 - 0.000000",
"Step : 0.010000",
"Channel_info_end",
"Channel_info_start",
"Channel : Si",
"Points : 0",
"Range : 0.000000 - 0.000000",
"Step : 0.010000",
"Channel_info_end",
"Channel_info_start",
"Channel : P ",
"Points : 0",
"Range : 0.000000 - 0.000000",
"Step : 0.010000",
"Channel_info_end",
"Channel_info_start",
"Channel : S ",
"Points : 0",
"Range : 0.000000 - 0.000000",
"Step : 0.010000",
"Channel_info_end",
"Channel_info_start",
"Channel : Cl",
"Points : 0",
"Range : 0.000000 - 0.000000",
"Step : 0.010000",
"Channel_info_end",
"Channel_info_start",
"Channel : K ",
"Points : 0",
"Range : 0.000000 - 0.000000",
"Step : 0.010000",
"Channel_info_end",
"Channel_info_start",
"Channel : Ca",
"Points : 0",
"Range : 0.000000 - 0.000000",
"Step : 0.010000",
"Channel_info_end",
"Channel_info_start",
"Channel : Ti",
"Points : 0",
"Range : 0.000000 - 0.000000",
"Step : 0.010000",
"Channel_info_end",
"Channel_info_start",
"Channel : V ",
"Points : 0",
"Range : 0.000000 - 0.000000",
"Step : 0.010000",
"Channel_info_end",
"Channel_info_start",
"Channel : Cr",
"Points : 0",
"Range : 0.000000 - 0.000000",
"Step : 0.010000",
"Channel_info_end",
"Channel_info_start",
"Channel : Mn",
"Points : 0",
"Range : 0.000000 - 0.000000",
"Step : 0.010000",
"Channel_info_end",
"Channel_info_start",
"Channel : Fe",
"Points : 0",
"Range : 0.000000 - 0.000000",
"Step : 0.010000",
"Channel_info_end",
"Channel_info_start",
"Channel : Cu",
"Points : 0",
"Range : 0.000000 - 0.000000",
"Step : 0.010000",
"Channel_info_end",
"Channel_info_start",
"Channel : Zn",
"Points : 0",
"Range : 0.000000 - 0.000000",
"Step : 0.010000",
"Channel_info_end",
"Channel_info_start",
"Channel : Sr",
"Points : 0",
"Range : 0.000000 - 0.000000",
"Step : 0.010000",
"Channel_info_end",
"Channel_info_start",
"Channel : Pb",
"Points : 0",
"Range : 0.000000 - 0.000000",
"Step : 0.010000",
"Channel_info_end",
"",
"Qualitative Result",
"--------------------------------------------------------------------------------",
"Element :  P , Sc, Ca, Ru",
"",
"Peak List",
"--------------------------------------------------------------------------------",
"Channel               Line        keV     Net Int.(cps/uA)",
"--------------------------------------------------------------------------------",
"Na                    P Ka         2.00     0.013",
"                      ScKaESC      2.32     0.028",
"                      CaKa         3.68     0.173",
"                      CaKb         4.01     0.024",
"                      ScKa         4.09     3.497",
"                      ScKb         4.46     0.450",
"                      ----         8.06     0.019",
"                      RuKa        19.16     0.137",
"                      ----        19.46     0.057",
"--------------------------------------------------------------------------------",
"",
"Quantitative Result",
"--------------------------------------------------------------------------------",
"Analyte               Result             Std.Dev. Proc.-Calc. Line Intensity(cps/uA)",
"--------------------------------------------------------------------------------",
"====[No. 1 Layer]====< Layer1               >===============================",
"Layer1                   0.000 ug/cm2    -------- Flux       -------- --------",