File: inputs/edxCalibration/edx_raw/2010-06/SiO 15752.20100611002720.csv
"Sample    : SiO 15752",
"Operator  : thiago",
"Comment  : cubatao-g-policarbonato",
"Group     : kerr2007ag180cal_lt",
"Date       : 2010-06-11 00:23:10",
"",
"Mesurement Condition",
"------------------------------------------------------------------------------------",
"Instrument : 700HS2   Atmosphere : Vac.   Collimator : 10(mm)   Spin : No",
"------------------------------------------------------------------------------------",
"Analyte               TG kV   uA      FI Acq.(keV)  Anal.(keV)  Time(sec)     DT(%)",
"------------------------------------------------------------------------------------",
"Na                    Rh 50  970-Auto Al  0 - 20    0.8 - 1.2   Live -  179   14",
"",
"<Profile>",
"Channel_info_start",
"Channel : Na",
"Points : 2048",
"Range : 0.000000 - 20.48",
"Step : 0.010000",
"Channel_info_end",
"0",
"0",
"0",
"0",
"0",
"55",
"45",
"43",
"52",
"46",
"46",
"40",
"52",
"37",
"46",
"38",
"38",
"61",
"55",
"53",
"63",
"75",
"92",
"257",
"3150",
"6666",
"1719",
"221",
"160",
"209",
"57",
"41",
"41",
"44",
"29",
"17",
"30",
"39",
"56",
"55",
"56",
"55",
"36",
"39",
"32",
"42",
"32",
"49",
"50",
"52",
"79",
"426",
"1582",
"2095",
"667",
"205",
"214",
"363",
"252",
"130",
"69",
"78",
"120",
"136",
"166",
"210",
"161",
"155",
"155",
"156",
"120",
"116",
"133",
"137",
"143",
"160",
"150",
"170",
"175",
"197",
"163",
"204",
"179",
"191",
"206",
"223",
"243",
"272",
"251",
"291",
"295",
"343",
"315",
"317",
"278",
"277",
"295",
"316",
"299",
"323",
"316",
"346",
"286",
"278",
"267",
"333",
"296",
"316",
"308",
"315",
"274",
"326",
"336",
"331",
"409",
"365",
"352",
"347",
"323",
"320",
"328",
"361",
"419",
"537",
"418",
"387",
"307",
"323",
"310",
"311",
"311",
"325",
"323",
"318",
"302",
"316",
"347",
"346",
"314",
"311",
"329",
"320",
"333",
"349",
"311",
"311",
"293",
"345",
"352",
"344",
"294",
"342",
"306",
"347",
"286",
"320",
"317",
"306",
"302",
"330",
"331",
"312",
"294",
"325",
"276",
"319",
"292",
"324",
"283",
"299",
"252",
"316",
"259",
"291",
"290",
"286",
"283",
"292",
"259",
"296",
"243",
"281",
"253",
"244",
"272",
"285",
"275",
"263",
"255",
"238",
"251",
"261",
"278",
"223",
"270",
"238",
"241",
"272",
"266",
"242",
"229",
"242",
"239",
"246",
"279",
"252",
"214",
"237",
"230",
"230",
"229",
"252",
"230",
"216",
"202",
"243",
"225",
"202",
"212",
"215",
"224",
"206",
"223",
"211",
"218",
"194",
"203",
"219",
"221",
"206",
"203",
"185",
"221",
"187",
"212",
"221",
"174",
"184",
"200",
"196",
"190",
"205",
"182",
"191",
"184",
"194",
"169",
"203",
"198",
"174",
"209",
"200",
"212",
"211",
"202",
"196",
"210",
"240",
"239",
"227",
"231",
"218",
"230",
"249",
"267",
"317",
"321",
"428",
"495",
"670",
"847",
"1076",
"1263",
"1281",
"1395",
"1414",
"1248",
"950",
"804",
"605",
"471",
"354",
"280",
"320",
"349",
"402",
"530",
"546",
"518",
"351",
"257",
"194",
"179",
"95473",
"Channel_info_start",
"Channel : Mg",
"Points : 0",
"Range : 0.000000 - 0.000000",
"Step : 0.010000",
"Channel_info_end",
"Channel_info_start",
"Channel : Al",
"Points : 0",
"Range : 0.000000 - 0.000000",
"Step : 0.010000",
"Channel_info_end",
"Channel_info_start",
"Channel : Si",
"Points : 0",
"Range : 0.000000 - 0.000000",
"Step : 0.010000",
"Channel_info_end",
"Channel_info_start",
"Channel : P ",
"Points : 0",
"Range : 0.000000 - 0.000000",
"Step : 0.010000",
"Channel_info_end",
"Channel_info_start",
"Channel : S ",
"Points : 0",
"Range : 0.000000 - 0.000000",
"Step : 0.010000",
"Channel_info_end",
"Channel_info_start",
"Channel : Cl",
"Points : 0",
"Range : 0.000000 - 0.000000",
"Step : 0.010000",
"Channel_info_end",
"Channel_info_start",
"Channel : K ",
"Points : 0",
"Range : 0.000000 - 0.000000",
"Step : 0.010000",
"Channel_info_end",
"Channel_info_start",
"Channel : Ca",
"Points : 0",
"Range : 0.000000 - 0.000000",
"Step : 0.010000",
"Channel_info_end",
"Channel_info_start",
"Channel : Ti",
"Points : 0",
"Range : 0.000000 - 0.000000",
"Step : 0.010000",
"Channel_info_end",
"Channel_info_start",
"Channel : V ",
"Points : 0",
"Range : 0.000000 - 0.000000",
"Step : 0.010000",
"Channel_info_end",
"Channel_info_start",
"Channel : Cr",
"Points : 0",
"Range : 0.000000 - 0.000000",
"Step : 0.010000",
"Channel_info_end",
"Channel_info_start",
"Channel : Mn",
"Points : 0",
"Range : 0.000000 - 0.000000",
"Step : 0.010000",
"Channel_info_end",
"Channel_info_start",
"Channel : Fe",
"Points : 0",
"Range : 0.000000 - 0.000000",
"Step : 0.010000",
"Channel_info_end",
"Channel_info_start",
"Channel : Cu",
"Points : 0",
"Range : 0.000000 - 0.000000",
"Step : 0.010000",
"Channel_info_end",
"Channel_info_start",
"Channel : Zn",
"Points : 0",
"Range : 0.000000 - 0.000000",
"Step : 0.010000",
"Channel_info_end",
"Channel_info_start",
"Channel : Sr",
"Points : 0",
"Range : 0.000000 - 0.000000",
"Step : 0.010000",
"Channel_info_end",
"Channel_info_start",
"Channel : Pb",
"Points : 0",
"Range : 0.000000 - 0.000000",
"Step : 0.010000",
"Channel_info_end",
"",
"Qualitative Result",
"--------------------------------------------------------------------------------",
"Element :  Si, P , Ca, Rh",
"",
"Peak List",
"--------------------------------------------------------------------------------",
"Channel               Line        keV     Net Int.(cps/uA)",
"--------------------------------------------------------------------------------",
"Na                    SiKa         1.74     0.431",
"                      P Ka         2.00     0.011",
"                      CaKa         3.68     0.162",
"                      CaKb         4.02     0.020",
"                      ----         4.56     0.008",
"                      ----         8.64     0.017",
"                      RhKaC       19.17     0.131",
"                      ----        19.45     0.056",
"                      RhKa        20.07     0.042",
"--------------------------------------------------------------------------------",
"",
"Quantitative Result",
"--------------------------------------------------------------------------------",
"Analyte               Result             Std.Dev. Proc.-Calc. Line Intensity(cps/uA)",
"--------------------------------------------------------------------------------",
"====[No. 1 Layer]====< Layer1               >===============================",
"Layer1                   0.000 ug/cm2    -------- Flux       -------- --------",