File: inputs/edxCalibration/edx_raw/2010-06/SrF2 15761.20100611020701.csv
"Sample    : SrF2 15761",
"Operator  : Luís",
"Comment  : cubatao-g-policarbonato",
"Group     : kerr2007ag180cal_lt",
"Date       : 2010-06-11 02:02:57",
"",
"Mesurement Condition",
"------------------------------------------------------------------------------------",
"Instrument : 700HS2   Atmosphere : Vac.   Collimator : 10(mm)   Spin : No",
"------------------------------------------------------------------------------------",
"Analyte               TG kV   uA      FI Acq.(keV)  Anal.(keV)  Time(sec)     DT(%)",
"------------------------------------------------------------------------------------",
"Na                    Rh 50  237-Auto Al  0 - 20    0.8 - 1.2   Live -  179   15",
"",
"<Profile>",
"Channel_info_start",
"Channel : Na",
"Points : 2048",
"Range : 0.000000 - 20.48",
"Step : 0.010000",
"Channel_info_end",
"0",
"0",
"0",
"0",
"0",
"30",
"32",
"39",
"25",
"37",
"50",
"14",
"27",
"26",
"19",
"24",
"23",
"22",
"19",
"22",
"22",
"37",
"78",
"136",
"168",
"921",
"2074",
"1301",
"411",
"114",
"35",
"22",
"29",
"26",
"17",
"15",
"14",
"22",
"21",
"15",
"18",
"15",
"16",
"14",
"12",
"17",
"16",
"12",
"21",
"25",
"24",
"72",
"378",
"586",
"160",
"70",
"54",
"92",
"67",
"37",
"21",
"31",
"23",
"37",
"47",
"41",
"56",
"54",
"43",
"43",
"45",
"34",
"30",
"34",
"45",
"50",
"37",
"61",
"38",
"44",
"44",
"50",
"64",
"71",
"81",
"88",
"76",
"81",
"75",
"85",
"75",
"102",
"95",
"95",
"103",
"93",
"108",
"92",
"72",
"105",
"84",
"77",
"71",
"83",
"93",
"83",
"89",
"89",
"90",
"83",
"98",
"102",
"120",
"117",
"156",
"211",
"214",
"207",
"100",
"101",
"91",
"113",
"110",
"128",
"142",
"96",
"70",
"105",
"106",
"100",
"85",
"106",
"123",
"167",
"141",
"114",
"115",
"113",
"127",
"107",
"100",
"107",
"94",
"96",
"97",
"87",
"96",
"108",
"100",
"83",
"93",
"89",
"98",
"96",
"101",
"94",
"90",
"89",
"98",
"92",
"102",
"95",
"85",
"100",
"84",
"82",
"102",
"85",
"96",
"91",
"74",
"82",
"66",
"90",
"71",
"83",
"81",
"89",
"93",
"98",
"92",
"69",
"83",
"84",
"69",
"78",
"65",
"61",
"63",
"82",
"90",
"76",
"104",
"118",
"101",
"119",
"127",
"207",
"815",
"3193",
"8451",
"14495",
"15581",
"11966",
"5394",
"1622",
"341",
"160",
"111",
"91",
"80",
"69",
"61",
"67",
"79",
"98",
"92",
"113",
"97",
"104",
"93",
"111",
"207",
"559",
"1267",
"2243",
"2570",
"2038",
"1178",
"679",
"431",
"267",
"149",
"65",
"60",
"50",
"63",
"54",
"54",
"40",
"58",
"48",
"38",
"44",
"49",
"51",
"55",
"48",
"57",
"49",
"44",
"57",
"54",
"45",
"65",
"47",
"64",
"65",
"62",
"62",
"58",
"56",
"68",
"76",
"63",
"77",
"96",
"103",
"126",
"164",
"224",
"259",
"328",
"303",
"342",
"333",
"294",
"239",
"179",
"141",
"126",
"103",
"72",
"79",
"98",
"135",
"157",
"181",
"157",
"137",
"84",
"54",
"63",
"25917",
"Channel_info_start",
"Channel : Mg",
"Points : 0",
"Range : 0.000000 - 0.000000",
"Step : 0.010000",
"Channel_info_end",
"Channel_info_start",
"Channel : Al",
"Points : 0",
"Range : 0.000000 - 0.000000",
"Step : 0.010000",
"Channel_info_end",
"Channel_info_start",
"Channel : Si",
"Points : 0",
"Range : 0.000000 - 0.000000",
"Step : 0.010000",
"Channel_info_end",
"Channel_info_start",
"Channel : P ",
"Points : 0",
"Range : 0.000000 - 0.000000",
"Step : 0.010000",
"Channel_info_end",
"Channel_info_start",
"Channel : S ",
"Points : 0",
"Range : 0.000000 - 0.000000",
"Step : 0.010000",
"Channel_info_end",
"Channel_info_start",
"Channel : Cl",
"Points : 0",
"Range : 0.000000 - 0.000000",
"Step : 0.010000",
"Channel_info_end",
"Channel_info_start",
"Channel : K ",
"Points : 0",
"Range : 0.000000 - 0.000000",
"Step : 0.010000",
"Channel_info_end",
"Channel_info_start",
"Channel : Ca",
"Points : 0",
"Range : 0.000000 - 0.000000",
"Step : 0.010000",
"Channel_info_end",
"Channel_info_start",
"Channel : Ti",
"Points : 0",
"Range : 0.000000 - 0.000000",
"Step : 0.010000",
"Channel_info_end",
"Channel_info_start",
"Channel : V ",
"Points : 0",
"Range : 0.000000 - 0.000000",
"Step : 0.010000",
"Channel_info_end",
"Channel_info_start",
"Channel : Cr",
"Points : 0",
"Range : 0.000000 - 0.000000",
"Step : 0.010000",
"Channel_info_end",
"Channel_info_start",
"Channel : Mn",
"Points : 0",
"Range : 0.000000 - 0.000000",
"Step : 0.010000",
"Channel_info_end",
"Channel_info_start",
"Channel : Fe",
"Points : 0",
"Range : 0.000000 - 0.000000",
"Step : 0.010000",
"Channel_info_end",
"Channel_info_start",
"Channel : Cu",
"Points : 0",
"Range : 0.000000 - 0.000000",
"Step : 0.010000",
"Channel_info_end",
"Channel_info_start",
"Channel : Zn",
"Points : 0",
"Range : 0.000000 - 0.000000",
"Step : 0.010000",
"Channel_info_end",
"Channel_info_start",
"Channel : Sr",
"Points : 0",
"Range : 0.000000 - 0.000000",
"Step : 0.010000",
"Channel_info_end",
"Channel_info_start",
"Channel : Pb",
"Points : 0",
"Range : 0.000000 - 0.000000",
"Step : 0.010000",
"Channel_info_end",
"",
"Qualitative Result",
"--------------------------------------------------------------------------------",
"Element :  Sr, Ca, Ta, Ru",
"",
"Peak List",
"--------------------------------------------------------------------------------",
"Channel               Line        keV     Net Int.(cps/uA)",
"--------------------------------------------------------------------------------",
"Na                    ----         1.59     0.032",
"                      SrLa         1.82     0.575",
"                      CaKa         3.68     0.188",
"                      CaKb         4.00     0.027",
"                      TaLa         8.13     0.059",
"                      TaLb1        9.36     0.033",
"                      SrKa        14.12     7.936",
"                      SrKb        15.81     1.252",
"                      ----        16.14     0.117",
"                      RuKa        19.24     0.120",
"                      ----        19.49     0.039",
"                      ----        20.01     0.055",
"--------------------------------------------------------------------------------",
"",
"Quantitative Result",
"--------------------------------------------------------------------------------",
"Analyte               Result             Std.Dev. Proc.-Calc. Line Intensity(cps/uA)",
"--------------------------------------------------------------------------------",
"====[No. 1 Layer]====< Layer1               >===============================",
"Layer1                   0.000 ug/cm2    -------- Flux       -------- --------",