File: inputs/edxCalibration/edx_raw/2010-06/Tb 31519.20100626151909.csv
"Sample    : Tb 31519",
"Operator  : thiago",
"Comment  : cubatao-g-policarbonato",
"Group     : kerr2007ag180cal_lt",
"Date       : 2010-06-26 15:15:05",
"",
"Mesurement Condition",
"------------------------------------------------------------------------------------",
"Instrument : 700HS2   Atmosphere : Vac.   Collimator : 10(mm)   Spin : No",
"------------------------------------------------------------------------------------",
"Analyte               TG kV   uA      FI Acq.(keV)  Anal.(keV)  Time(sec)     DT(%)",
"------------------------------------------------------------------------------------",
"Na                    Rh 50  168-Auto Al  0 - 20    0.8 - 1.2   Live -  179   15",
"",
"<Profile>",
"Channel_info_start",
"Channel : Na",
"Points : 2048",
"Range : 0.000000 - 20.48",
"Step : 0.010000",
"Channel_info_end",
"0",
"0",
"0",
"0",
"1",
"30",
"35",
"36",
"61",
"101",
"71",
"37",
"28",
"44",
"33",
"30",
"35",
"32",
"36",
"29",
"42",
"37",
"46",
"47",
"33",
"109",
"280",
"233",
"132",
"160",
"193",
"320",
"458",
"2628",
"4351",
"3546",
"1344",
"351",
"425",
"225",
"71",
"67",
"59",
"82",
"181",
"160",
"73",
"28",
"22",
"22",
"27",
"74",
"257",
"356",
"146",
"37",
"33",
"59",
"58",
"26",
"24",
"37",
"26",
"33",
"32",
"45",
"48",
"49",
"51",
"42",
"52",
"65",
"47",
"29",
"41",
"54",
"47",
"57",
"52",
"40",
"45",
"55",
"62",
"59",
"74",
"73",
"63",
"86",
"89",
"98",
"89",
"109",
"108",
"98",
"86",
"96",
"97",
"100",
"108",
"91",
"116",
"83",
"99",
"107",
"85",
"87",
"98",
"109",
"102",
"99",
"91",
"102",
"107",
"87",
"141",
"191",
"124",
"101",
"98",
"113",
"98",
"101",
"119",
"126",
"134",
"122",
"115",
"125",
"139",
"207",
"446",
"746",
"604",
"284",
"125",
"132",
"101",
"108",
"82",
"108",
"94",
"85",
"114",
"128",
"135",
"133",
"180",
"412",
"1624",
"5229",
"9466",
"10779",
"6400",
"2080",
"447",
"172",
"104",
"94",
"110",
"116",
"149",
"234",
"217",
"227",
"166",
"84",
"88",
"83",
"100",
"116",
"109",
"100",
"189",
"283",
"393",
"547",
"590",
"805",
"2163",
"5194",
"7264",
"6180",
"3422",
"1430",
"701",
"479",
"384",
"285",
"168",
"119",
"99",
"87",
"88",
"78",
"62",
"79",
"77",
"47",
"54",
"74",
"66",
"67",
"71",
"101",
"108",
"100",
"99",
"127",
"209",
"515",
"882",
"1084",
"752",
"444",
"257",
"293",
"379",
"376",
"250",
"188",
"94",
"73",
"54",
"86",
"57",
"82",
"58",
"53",
"47",
"54",
"48",
"57",
"38",
"50",
"52",
"58",
"60",
"52",
"42",
"37",
"49",
"58",
"46",
"35",
"49",
"60",
"36",
"54",
"40",
"38",
"45",
"36",
"37",
"25",
"38",
"48",
"50",
"46",
"39",
"49",
"48",
"62",
"57",
"53",
"64",
"50",
"67",
"75",
"92",
"102",
"136",
"183",
"191",
"237",
"232",
"273",
"239",
"214",
"178",
"129",
"88",
"73",
"65",
"83",
"116",
"168",
"205",
"265",
"245",
"132",
"91",
"59",
"41",
"22227",
"Channel_info_start",
"Channel : Mg",
"Points : 0",
"Range : 0.000000 - 0.000000",
"Step : 0.010000",
"Channel_info_end",
"Channel_info_start",
"Channel : Al",
"Points : 0",
"Range : 0.000000 - 0.000000",
"Step : 0.010000",
"Channel_info_end",
"Channel_info_start",
"Channel : Si",
"Points : 0",
"Range : 0.000000 - 0.000000",
"Step : 0.010000",
"Channel_info_end",
"Channel_info_start",
"Channel : P ",
"Points : 0",
"Range : 0.000000 - 0.000000",
"Step : 0.010000",
"Channel_info_end",
"Channel_info_start",
"Channel : S ",
"Points : 0",
"Range : 0.000000 - 0.000000",
"Step : 0.010000",
"Channel_info_end",
"Channel_info_start",
"Channel : Cl",
"Points : 0",
"Range : 0.000000 - 0.000000",
"Step : 0.010000",
"Channel_info_end",
"Channel_info_start",
"Channel : K ",
"Points : 0",
"Range : 0.000000 - 0.000000",
"Step : 0.010000",
"Channel_info_end",
"Channel_info_start",
"Channel : Ca",
"Points : 0",
"Range : 0.000000 - 0.000000",
"Step : 0.010000",
"Channel_info_end",
"Channel_info_start",
"Channel : Ti",
"Points : 0",
"Range : 0.000000 - 0.000000",
"Step : 0.010000",
"Channel_info_end",
"Channel_info_start",
"Channel : V ",
"Points : 0",
"Range : 0.000000 - 0.000000",
"Step : 0.010000",
"Channel_info_end",
"Channel_info_start",
"Channel : Cr",
"Points : 0",
"Range : 0.000000 - 0.000000",
"Step : 0.010000",
"Channel_info_end",
"Channel_info_start",
"Channel : Mn",
"Points : 0",
"Range : 0.000000 - 0.000000",
"Step : 0.010000",
"Channel_info_end",
"Channel_info_start",
"Channel : Fe",
"Points : 0",
"Range : 0.000000 - 0.000000",
"Step : 0.010000",
"Channel_info_end",
"Channel_info_start",
"Channel : Cu",
"Points : 0",
"Range : 0.000000 - 0.000000",
"Step : 0.010000",
"Channel_info_end",
"Channel_info_start",
"Channel : Zn",
"Points : 0",
"Range : 0.000000 - 0.000000",
"Step : 0.010000",
"Channel_info_end",
"Channel_info_start",
"Channel : Sr",
"Points : 0",
"Range : 0.000000 - 0.000000",
"Step : 0.010000",
"Channel_info_end",
"Channel_info_start",
"Channel : Pb",
"Points : 0",
"Range : 0.000000 - 0.000000",
"Step : 0.010000",
"Channel_info_end",
"",
"Qualitative Result",
"--------------------------------------------------------------------------------",
"Element :  Pb, S , Cl, Ca, Ir, Ru",
"",
"Peak List",
"--------------------------------------------------------------------------------",
"Channel               Line        keV     Net Int.(cps/uA)",
"--------------------------------------------------------------------------------",
"Na                    ----         0.61     0.027",
"                      ----         0.71     0.017",
"                      ----         1.84     0.103",
"                      ----         2.15     0.060",
"                      PbMa         2.37     1.216",
"                      S Ka         2.37     0.538",
"                      ClKa         2.68     0.150",
"                      ----         3.10     0.059",
"                      CaKa         3.68     0.159",
"                      CaKb         4.01     0.020",
"                      PbLL         9.19     0.270",
"                      IrLa         9.19     0.089",
"                      PbLa        10.55     6.758",
"                      IrLb1       10.71     0.049",
"                      PbLn        11.30     0.076",
"                      PbLb4       12.25     0.164",
"                      PbLb1       12.61     4.556",
"                      PbLg1       14.76     0.662",
"                      PbLg2       15.16     0.195",
"                      RuKa        19.25     0.147",
"                      ----        19.50     0.050",
"                      ----        19.97     0.098",
"--------------------------------------------------------------------------------",
"",
"Quantitative Result",
"--------------------------------------------------------------------------------",
"Analyte               Result             Std.Dev. Proc.-Calc. Line Intensity(cps/uA)",
"--------------------------------------------------------------------------------",
"====[No. 1 Layer]====< Layer1               >===============================",
"Layer1                   0.000 ug/cm2    -------- Flux       -------- --------",