File: inputs/edxCalibration/edx_raw/2010-06/Te 15768.20100526003448.csv
"Sample    : Te 15768",
"Operator  : luisf",
"Comment  : cubatao-g-policarbonato",
"Group     : kerr2007ag180cal_lt",
"Date       : 2010-05-26 00:30:37",
"",
"Mesurement Condition",
"------------------------------------------------------------------------------------",
"Instrument : 700HS2   Atmosphere : Vac.   Collimator : 10(mm)   Spin : No",
"------------------------------------------------------------------------------------",
"Analyte               TG kV   uA      FI Acq.(keV)  Anal.(keV)  Time(sec)     DT(%)",
"------------------------------------------------------------------------------------",
"Na                    Rh 50  360-Auto Al  0 - 20    0.8 - 1.2   Live -  179   15",
"",
"<Profile>",
"Channel_info_start",
"Channel : Na",
"Points : 2048",
"Range : 0.000000 - 20.48",
"Step : 0.010000",
"Channel_info_end",
"0",
"0",
"0",
"0",
"0",
"58",
"35",
"35",
"36",
"39",
"40",
"45",
"52",
"44",
"44",
"54",
"57",
"48",
"34",
"40",
"39",
"49",
"35",
"47",
"44",
"71",
"52",
"57",
"172",
"242",
"118",
"99",
"144",
"196",
"100",
"61",
"77",
"101",
"78",
"61",
"65",
"83",
"54",
"101",
"72",
"108",
"191",
"609",
"698",
"329",
"230",
"527",
"1711",
"8564",
"13585",
"5244",
"1639",
"6445",
"8414",
"4717",
"1574",
"1758",
"1724",
"592",
"458",
"1022",
"826",
"319",
"488",
"718",
"330",
"136",
"70",
"72",
"61",
"94",
"89",
"113",
"97",
"132",
"86",
"100",
"97",
"93",
"105",
"107",
"126",
"121",
"134",
"157",
"158",
"154",
"131",
"134",
"123",
"144",
"127",
"156",
"127",
"149",
"157",
"160",
"150",
"180",
"185",
"196",
"181",
"160",
"165",
"157",
"162",
"176",
"192",
"206",
"219",
"198",
"221",
"160",
"147",
"187",
"164",
"209",
"209",
"207",
"183",
"191",
"169",
"177",
"168",
"168",
"152",
"159",
"157",
"172",
"138",
"176",
"179",
"154",
"138",
"167",
"173",
"198",
"217",
"236",
"155",
"154",
"144",
"168",
"151",
"125",
"147",
"164",
"155",
"151",
"174",
"147",
"139",
"150",
"149",
"163",
"158",
"149",
"133",
"137",
"138",
"149",
"147",
"150",
"177",
"182",
"164",
"145",
"155",
"146",
"155",
"110",
"131",
"131",
"128",
"123",
"144",
"143",
"133",
"130",
"133",
"103",
"122",
"137",
"126",
"115",
"137",
"137",
"134",
"112",
"125",
"125",
"117",
"128",
"112",
"121",
"134",
"110",
"118",
"101",
"103",
"106",
"108",
"125",
"130",
"111",
"103",
"114",
"110",
"101",
"102",
"124",
"98",
"85",
"101",
"111",
"101",
"98",
"113",
"98",
"82",
"82",
"95",
"108",
"107",
"82",
"84",
"97",
"79",
"105",
"83",
"85",
"90",
"89",
"90",
"88",
"84",
"90",
"87",
"81",
"83",
"88",
"81",
"105",
"88",
"84",
"76",
"76",
"81",
"74",
"85",
"81",
"91",
"91",
"90",
"89",
"100",
"102",
"94",
"105",
"134",
"118",
"125",
"163",
"203",
"260",
"292",
"400",
"457",
"506",
"537",
"474",
"475",
"412",
"269",
"237",
"211",
"159",
"124",
"130",
"195",
"253",
"316",
"355",
"347",
"244",
"134",
"94",
"85",
"100006",
"Channel_info_start",
"Channel : Mg",
"Points : 0",
"Range : 0.000000 - 0.000000",
"Step : 0.010000",
"Channel_info_end",
"Channel_info_start",
"Channel : Al",
"Points : 0",
"Range : 0.000000 - 0.000000",
"Step : 0.010000",
"Channel_info_end",
"Channel_info_start",
"Channel : Si",
"Points : 0",
"Range : 0.000000 - 0.000000",
"Step : 0.010000",
"Channel_info_end",
"Channel_info_start",
"Channel : P ",
"Points : 0",
"Range : 0.000000 - 0.000000",
"Step : 0.010000",
"Channel_info_end",
"Channel_info_start",
"Channel : S ",
"Points : 0",
"Range : 0.000000 - 0.000000",
"Step : 0.010000",
"Channel_info_end",
"Channel_info_start",
"Channel : Cl",
"Points : 0",
"Range : 0.000000 - 0.000000",
"Step : 0.010000",
"Channel_info_end",
"Channel_info_start",
"Channel : K ",
"Points : 0",
"Range : 0.000000 - 0.000000",
"Step : 0.010000",
"Channel_info_end",
"Channel_info_start",
"Channel : Ca",
"Points : 0",
"Range : 0.000000 - 0.000000",
"Step : 0.010000",
"Channel_info_end",
"Channel_info_start",
"Channel : Ti",
"Points : 0",
"Range : 0.000000 - 0.000000",
"Step : 0.010000",
"Channel_info_end",
"Channel_info_start",
"Channel : V ",
"Points : 0",
"Range : 0.000000 - 0.000000",
"Step : 0.010000",
"Channel_info_end",
"Channel_info_start",
"Channel : Cr",
"Points : 0",
"Range : 0.000000 - 0.000000",
"Step : 0.010000",
"Channel_info_end",
"Channel_info_start",
"Channel : Mn",
"Points : 0",
"Range : 0.000000 - 0.000000",
"Step : 0.010000",
"Channel_info_end",
"Channel_info_start",
"Channel : Fe",
"Points : 0",
"Range : 0.000000 - 0.000000",
"Step : 0.010000",
"Channel_info_end",
"Channel_info_start",
"Channel : Cu",
"Points : 0",
"Range : 0.000000 - 0.000000",
"Step : 0.010000",
"Channel_info_end",
"Channel_info_start",
"Channel : Zn",
"Points : 0",
"Range : 0.000000 - 0.000000",
"Step : 0.010000",
"Channel_info_end",
"Channel_info_start",
"Channel : Sr",
"Points : 0",
"Range : 0.000000 - 0.000000",
"Step : 0.010000",
"Channel_info_end",
"Channel_info_start",
"Channel : Pb",
"Points : 0",
"Range : 0.000000 - 0.000000",
"Step : 0.010000",
"Channel_info_end",
"",
"Qualitative Result",
"--------------------------------------------------------------------------------",
"Element :  P , S , Te, K , Ca, Ge, Ru",
"",
"Peak List",
"--------------------------------------------------------------------------------",
"Channel               Line        keV     Net Int.(cps/uA)",
"--------------------------------------------------------------------------------",
"Na                    P Ka         2.02     0.039",
"                      S Ka         2.31     0.022",
"                      TeLL         3.34     0.085",
"                      K Ka         3.34     0.058",
"                      CaKa         3.76     2.959",
"                      CaKb         4.04     0.414",
"                      TeLb1        4.04     1.449",
"                      TeLb2        4.30     0.351",
"                      TeLg1        4.58     0.161",
"                      TeLg2        4.81     0.114",
"                      GeKa         9.96     0.027",
"                      RuKa        19.20     0.137",
"                      ----        19.52     0.035",
"                      ----        19.99     0.074",
"--------------------------------------------------------------------------------",
"",
"Quantitative Result",
"--------------------------------------------------------------------------------",
"Analyte               Result             Std.Dev. Proc.-Calc. Line Intensity(cps/uA)",
"--------------------------------------------------------------------------------",
"====[No. 1 Layer]====< Layer1               >===============================",
"Layer1                   0.000 ug/cm2    -------- Flux       -------- --------",