File: inputs/edxCalibration/edx_raw/2010-06/Te 15768.20100626142519.csv
"Sample    : Te 15768",
"Operator  : thiago",
"Comment  : cubatao-g-policarbonato",
"Group     : kerr2007ag180cal_lt",
"Date       : 2010-06-26 14:21:07",
"",
"Mesurement Condition",
"------------------------------------------------------------------------------------",
"Instrument : 700HS2   Atmosphere : Vac.   Collimator : 10(mm)   Spin : No",
"------------------------------------------------------------------------------------",
"Analyte               TG kV   uA      FI Acq.(keV)  Anal.(keV)  Time(sec)     DT(%)",
"------------------------------------------------------------------------------------",
"Na                    Rh 50  360-Auto Al  0 - 20    0.8 - 1.2   Live -  179   15",
"",
"<Profile>",
"Channel_info_start",
"Channel : Na",
"Points : 2048",
"Range : 0.000000 - 20.48",
"Step : 0.010000",
"Channel_info_end",
"0",
"0",
"0",
"0",
"2",
"56",
"37",
"49",
"38",
"26",
"28",
"52",
"41",
"31",
"45",
"33",
"31",
"37",
"40",
"50",
"50",
"56",
"61",
"68",
"45",
"73",
"59",
"50",
"142",
"249",
"100",
"95",
"131",
"158",
"94",
"72",
"66",
"100",
"92",
"68",
"71",
"64",
"58",
"68",
"93",
"99",
"157",
"582",
"694",
"344",
"224",
"504",
"1657",
"8332",
"13894",
"5538",
"1549",
"6297",
"8585",
"4838",
"1647",
"1674",
"1747",
"563",
"456",
"1053",
"854",
"333",
"488",
"673",
"364",
"161",
"76",
"64",
"62",
"100",
"98",
"112",
"115",
"110",
"87",
"84",
"93",
"94",
"108",
"100",
"117",
"125",
"112",
"137",
"138",
"171",
"148",
"145",
"127",
"138",
"131",
"134",
"146",
"183",
"160",
"164",
"151",
"174",
"178",
"176",
"172",
"199",
"153",
"182",
"168",
"183",
"186",
"217",
"219",
"214",
"214",
"176",
"169",
"159",
"147",
"188",
"193",
"243",
"218",
"172",
"167",
"160",
"170",
"180",
"174",
"182",
"176",
"183",
"166",
"144",
"180",
"157",
"143",
"173",
"166",
"173",
"218",
"241",
"172",
"151",
"154",
"151",
"164",
"151",
"161",
"172",
"160",
"145",
"174",
"168",
"157",
"142",
"153",
"153",
"166",
"163",
"171",
"143",
"151",
"166",
"157",
"166",
"184",
"181",
"197",
"192",
"155",
"129",
"125",
"141",
"124",
"124",
"143",
"135",
"158",
"126",
"158",
"129",
"132",
"141",
"145",
"106",
"132",
"134",
"133",
"126",
"110",
"120",
"121",
"112",
"118",
"118",
"133",
"124",
"110",
"124",
"108",
"107",
"107",
"119",
"102",
"123",
"106",
"95",
"124",
"113",
"96",
"97",
"112",
"98",
"96",
"87",
"97",
"124",
"93",
"107",
"96",
"131",
"95",
"88",
"72",
"99",
"105",
"135",
"89",
"84",
"97",
"86",
"85",
"89",
"93",
"87",
"92",
"78",
"95",
"95",
"86",
"102",
"86",
"105",
"82",
"96",
"97",
"98",
"89",
"81",
"97",
"105",
"81",
"84",
"102",
"98",
"73",
"98",
"114",
"92",
"93",
"101",
"113",
"146",
"146",
"172",
"161",
"223",
"316",
"371",
"468",
"505",
"522",
"566",
"515",
"407",
"296",
"248",
"219",
"168",
"114",
"157",
"164",
"231",
"339",
"429",
"368",
"225",
"136",
"105",
"81",
"100799",
"Channel_info_start",
"Channel : Mg",
"Points : 0",
"Range : 0.000000 - 0.000000",
"Step : 0.010000",
"Channel_info_end",
"Channel_info_start",
"Channel : Al",
"Points : 0",
"Range : 0.000000 - 0.000000",
"Step : 0.010000",
"Channel_info_end",
"Channel_info_start",
"Channel : Si",
"Points : 0",
"Range : 0.000000 - 0.000000",
"Step : 0.010000",
"Channel_info_end",
"Channel_info_start",
"Channel : P ",
"Points : 0",
"Range : 0.000000 - 0.000000",
"Step : 0.010000",
"Channel_info_end",
"Channel_info_start",
"Channel : S ",
"Points : 0",
"Range : 0.000000 - 0.000000",
"Step : 0.010000",
"Channel_info_end",
"Channel_info_start",
"Channel : Cl",
"Points : 0",
"Range : 0.000000 - 0.000000",
"Step : 0.010000",
"Channel_info_end",
"Channel_info_start",
"Channel : K ",
"Points : 0",
"Range : 0.000000 - 0.000000",
"Step : 0.010000",
"Channel_info_end",
"Channel_info_start",
"Channel : Ca",
"Points : 0",
"Range : 0.000000 - 0.000000",
"Step : 0.010000",
"Channel_info_end",
"Channel_info_start",
"Channel : Ti",
"Points : 0",
"Range : 0.000000 - 0.000000",
"Step : 0.010000",
"Channel_info_end",
"Channel_info_start",
"Channel : V ",
"Points : 0",
"Range : 0.000000 - 0.000000",
"Step : 0.010000",
"Channel_info_end",
"Channel_info_start",
"Channel : Cr",
"Points : 0",
"Range : 0.000000 - 0.000000",
"Step : 0.010000",
"Channel_info_end",
"Channel_info_start",
"Channel : Mn",
"Points : 0",
"Range : 0.000000 - 0.000000",
"Step : 0.010000",
"Channel_info_end",
"Channel_info_start",
"Channel : Fe",
"Points : 0",
"Range : 0.000000 - 0.000000",
"Step : 0.010000",
"Channel_info_end",
"Channel_info_start",
"Channel : Cu",
"Points : 0",
"Range : 0.000000 - 0.000000",
"Step : 0.010000",
"Channel_info_end",
"Channel_info_start",
"Channel : Zn",
"Points : 0",
"Range : 0.000000 - 0.000000",
"Step : 0.010000",
"Channel_info_end",
"Channel_info_start",
"Channel : Sr",
"Points : 0",
"Range : 0.000000 - 0.000000",
"Step : 0.010000",
"Channel_info_end",
"Channel_info_start",
"Channel : Pb",
"Points : 0",
"Range : 0.000000 - 0.000000",
"Step : 0.010000",
"Channel_info_end",
"",
"Qualitative Result",
"--------------------------------------------------------------------------------",
"Element :  P , S , Te, K , Ru",
"",
"Peak List",
"--------------------------------------------------------------------------------",
"Channel               Line        keV     Net Int.(cps/uA)",
"--------------------------------------------------------------------------------",
"Na                    P Ka         2.03     0.040",
"                      S Ka         2.28     0.022",
"                      TeLL         3.34     0.089",
"                      K Ka         3.34     0.051",
"                      TeLa         3.77     2.965",
"                      TeLb1        4.04     1.905",
"                      TeLb2        4.31     0.336",
"                      TeLg1        4.58     0.160",
"                      TeLg2        4.83     0.108",
"                      ----         9.99     0.027",
"                      RuKa        19.21     0.148",
"                      ----        19.51     0.049",
"--------------------------------------------------------------------------------",
"",
"Quantitative Result",
"--------------------------------------------------------------------------------",
"Analyte               Result             Std.Dev. Proc.-Calc. Line Intensity(cps/uA)",
"--------------------------------------------------------------------------------",
"====[No. 1 Layer]====< Layer1               >===============================",
"Layer1                   0.000 ug/cm2    -------- Flux       -------- --------",