File: inputs/edxCalibration/edx_raw/2010-06/Te 15768.20100611032816.csv
"Sample    : Te 15768",
"Operator  : Luís",
"Comment  : cubatao-g-policarbonato",
"Group     : kerr2007ag180cal_lt",
"Date       : 2010-06-11 03:24:05",
"",
"Mesurement Condition",
"------------------------------------------------------------------------------------",
"Instrument : 700HS2   Atmosphere : Vac.   Collimator : 10(mm)   Spin : No",
"------------------------------------------------------------------------------------",
"Analyte               TG kV   uA      FI Acq.(keV)  Anal.(keV)  Time(sec)     DT(%)",
"------------------------------------------------------------------------------------",
"Na                    Rh 50  360-Auto Al  0 - 20    0.8 - 1.2   Live -  179   15",
"",
"<Profile>",
"Channel_info_start",
"Channel : Na",
"Points : 2048",
"Range : 0.000000 - 20.48",
"Step : 0.010000",
"Channel_info_end",
"0",
"0",
"0",
"0",
"0",
"41",
"42",
"46",
"51",
"50",
"35",
"50",
"41",
"47",
"41",
"45",
"37",
"39",
"56",
"39",
"42",
"44",
"42",
"58",
"52",
"68",
"51",
"71",
"134",
"265",
"106",
"95",
"140",
"173",
"99",
"84",
"75",
"93",
"81",
"84",
"73",
"81",
"60",
"70",
"78",
"96",
"172",
"655",
"735",
"334",
"248",
"578",
"1764",
"9026",
"13263",
"5222",
"1573",
"6859",
"8563",
"4646",
"1675",
"1926",
"1652",
"524",
"488",
"1065",
"784",
"346",
"438",
"780",
"367",
"151",
"80",
"88",
"69",
"101",
"80",
"105",
"106",
"99",
"74",
"109",
"84",
"82",
"106",
"113",
"130",
"117",
"154",
"163",
"134",
"168",
"159",
"130",
"148",
"124",
"130",
"117",
"139",
"137",
"150",
"167",
"163",
"178",
"180",
"176",
"159",
"187",
"162",
"171",
"162",
"169",
"192",
"185",
"178",
"221",
"225",
"173",
"170",
"171",
"159",
"175",
"198",
"241",
"229",
"185",
"181",
"178",
"172",
"167",
"185",
"178",
"172",
"155",
"164",
"176",
"161",
"158",
"147",
"182",
"160",
"213",
"239",
"257",
"211",
"155",
"146",
"181",
"172",
"169",
"156",
"161",
"166",
"145",
"143",
"159",
"163",
"182",
"138",
"158",
"159",
"173",
"133",
"159",
"137",
"147",
"162",
"171",
"204",
"201",
"164",
"149",
"158",
"145",
"129",
"146",
"132",
"114",
"147",
"136",
"131",
"126",
"122",
"130",
"124",
"118",
"136",
"117",
"133",
"121",
"120",
"140",
"132",
"118",
"119",
"132",
"127",
"142",
"123",
"117",
"110",
"131",
"111",
"114",
"112",
"90",
"91",
"115",
"105",
"110",
"131",
"127",
"109",
"106",
"118",
"111",
"82",
"101",
"108",
"97",
"83",
"111",
"105",
"100",
"100",
"98",
"99",
"95",
"100",
"99",
"90",
"98",
"109",
"83",
"80",
"109",
"80",
"99",
"85",
"102",
"94",
"94",
"108",
"96",
"88",
"81",
"86",
"91",
"91",
"85",
"71",
"93",
"84",
"90",
"95",
"81",
"85",
"91",
"97",
"103",
"103",
"114",
"95",
"117",
"109",
"126",
"127",
"176",
"212",
"260",
"327",
"429",
"452",
"466",
"496",
"525",
"462",
"433",
"327",
"225",
"174",
"159",
"129",
"144",
"203",
"271",
"335",
"394",
"306",
"201",
"129",
"99",
"81",
"100031",
"Channel_info_start",
"Channel : Mg",
"Points : 0",
"Range : 0.000000 - 0.000000",
"Step : 0.010000",
"Channel_info_end",
"Channel_info_start",
"Channel : Al",
"Points : 0",
"Range : 0.000000 - 0.000000",
"Step : 0.010000",
"Channel_info_end",
"Channel_info_start",
"Channel : Si",
"Points : 0",
"Range : 0.000000 - 0.000000",
"Step : 0.010000",
"Channel_info_end",
"Channel_info_start",
"Channel : P ",
"Points : 0",
"Range : 0.000000 - 0.000000",
"Step : 0.010000",
"Channel_info_end",
"Channel_info_start",
"Channel : S ",
"Points : 0",
"Range : 0.000000 - 0.000000",
"Step : 0.010000",
"Channel_info_end",
"Channel_info_start",
"Channel : Cl",
"Points : 0",
"Range : 0.000000 - 0.000000",
"Step : 0.010000",
"Channel_info_end",
"Channel_info_start",
"Channel : K ",
"Points : 0",
"Range : 0.000000 - 0.000000",
"Step : 0.010000",
"Channel_info_end",
"Channel_info_start",
"Channel : Ca",
"Points : 0",
"Range : 0.000000 - 0.000000",
"Step : 0.010000",
"Channel_info_end",
"Channel_info_start",
"Channel : Ti",
"Points : 0",
"Range : 0.000000 - 0.000000",
"Step : 0.010000",
"Channel_info_end",
"Channel_info_start",
"Channel : V ",
"Points : 0",
"Range : 0.000000 - 0.000000",
"Step : 0.010000",
"Channel_info_end",
"Channel_info_start",
"Channel : Cr",
"Points : 0",
"Range : 0.000000 - 0.000000",
"Step : 0.010000",
"Channel_info_end",
"Channel_info_start",
"Channel : Mn",
"Points : 0",
"Range : 0.000000 - 0.000000",
"Step : 0.010000",
"Channel_info_end",
"Channel_info_start",
"Channel : Fe",
"Points : 0",
"Range : 0.000000 - 0.000000",
"Step : 0.010000",
"Channel_info_end",
"Channel_info_start",
"Channel : Cu",
"Points : 0",
"Range : 0.000000 - 0.000000",
"Step : 0.010000",
"Channel_info_end",
"Channel_info_start",
"Channel : Zn",
"Points : 0",
"Range : 0.000000 - 0.000000",
"Step : 0.010000",
"Channel_info_end",
"Channel_info_start",
"Channel : Sr",
"Points : 0",
"Range : 0.000000 - 0.000000",
"Step : 0.010000",
"Channel_info_end",
"Channel_info_start",
"Channel : Pb",
"Points : 0",
"Range : 0.000000 - 0.000000",
"Step : 0.010000",
"Channel_info_end",
"",
"Qualitative Result",
"--------------------------------------------------------------------------------",
"Element :  P , S , Te, K , Ca, Hg, Rh",
"",
"Peak List",
"--------------------------------------------------------------------------------",
"Channel               Line        keV     Net Int.(cps/uA)",
"--------------------------------------------------------------------------------",
"Na                    P Ka         2.00     0.042",
"                      S Ka         2.28     0.022",
"                      TeLL         3.34     0.085",
"                      K Ka         3.34     0.045",
"                      CaKa         3.76     2.989",
"                      CaKb         4.04     0.418",
"                      TeLb1        4.04     1.453",
"                      TeLb2        4.30     0.351",
"                      TeLg1        4.58     0.169",
"                      TeLg2        4.82     0.125",
"                      HgLa        10.01     0.028",
"                      RhKaC       19.24     0.135",
"                      ----        19.51     0.038",
"                      RhKa        20.08     0.096",
"--------------------------------------------------------------------------------",
"",
"Quantitative Result",
"--------------------------------------------------------------------------------",
"Analyte               Result             Std.Dev. Proc.-Calc. Line Intensity(cps/uA)",
"--------------------------------------------------------------------------------",
"====[No. 1 Layer]====< Layer1               >===============================",
"Layer1                   0.000 ug/cm2    -------- Flux       -------- --------",