File: inputs/edxCalibration/edx_raw/2010-06/Ti 15755 .20100610234805.csv
"Sample    : Ti 15755 ",
"Operator  : thiago",
"Comment  : cubatao-g-policarbonato",
"Group     : kerr2007ag180cal_lt",
"Date       : 2010-06-10 23:44:05",
"",
"Mesurement Condition",
"------------------------------------------------------------------------------------",
"Instrument : 700HS2   Atmosphere : Vac.   Collimator : 10(mm)   Spin : No",
"------------------------------------------------------------------------------------",
"Analyte               TG kV   uA      FI Acq.(keV)  Anal.(keV)  Time(sec)     DT(%)",
"------------------------------------------------------------------------------------",
"Na                    Rh 50  268-Auto Al  0 - 20    0.8 - 1.2   Live -  179   13",
"",
"<Profile>",
"Channel_info_start",
"Channel : Na",
"Points : 2048",
"Range : 0.000000 - 20.48",
"Step : 0.010000",
"Channel_info_end",
"0",
"0",
"0",
"0",
"0",
"14",
"14",
"17",
"15",
"13",
"15",
"13",
"11",
"18",
"13",
"13",
"12",
"18",
"14",
"21",
"22",
"23",
"22",
"25",
"16",
"19",
"26",
"34",
"53",
"64",
"27",
"15",
"26",
"26",
"34",
"24",
"29",
"23",
"64",
"253",
"238",
"66",
"24",
"30",
"44",
"57",
"41",
"37",
"23",
"37",
"72",
"157",
"477",
"667",
"238",
"149",
"133",
"194",
"170",
"151",
"146",
"236",
"683",
"8011",
"29320",
"25063",
"4806",
"366",
"221",
"1171",
"3535",
"3238",
"773",
"81",
"43",
"48",
"58",
"52",
"55",
"41",
"36",
"61",
"56",
"53",
"43",
"68",
"51",
"67",
"68",
"82",
"84",
"112",
"95",
"96",
"84",
"75",
"87",
"95",
"78",
"82",
"105",
"99",
"84",
"92",
"106",
"71",
"99",
"92",
"89",
"93",
"90",
"71",
"83",
"110",
"109",
"119",
"112",
"93",
"104",
"106",
"103",
"118",
"136",
"167",
"148",
"105",
"99",
"106",
"125",
"108",
"91",
"108",
"118",
"94",
"85",
"104",
"111",
"102",
"91",
"74",
"83",
"102",
"76",
"101",
"91",
"98",
"75",
"68",
"85",
"93",
"91",
"85",
"91",
"82",
"104",
"69",
"98",
"110",
"83",
"96",
"85",
"101",
"89",
"104",
"81",
"85",
"75",
"95",
"105",
"83",
"70",
"91",
"76",
"71",
"89",
"76",
"76",
"70",
"83",
"82",
"70",
"79",
"81",
"85",
"74",
"80",
"81",
"81",
"64",
"82",
"75",
"79",
"65",
"75",
"67",
"61",
"67",
"74",
"62",
"67",
"71",
"78",
"65",
"59",
"63",
"67",
"69",
"69",
"57",
"61",
"69",
"61",
"65",
"70",
"58",
"61",
"88",
"84",
"55",
"70",
"44",
"59",
"75",
"61",
"67",
"59",
"55",
"78",
"55",
"62",
"52",
"61",
"59",
"53",
"63",
"57",
"68",
"53",
"51",
"63",
"56",
"48",
"51",
"57",
"69",
"52",
"61",
"61",
"57",
"54",
"71",
"61",
"42",
"65",
"57",
"72",
"54",
"64",
"54",
"59",
"71",
"51",
"65",
"75",
"78",
"66",
"95",
"117",
"135",
"200",
"226",
"251",
"328",
"382",
"368",
"367",
"372",
"282",
"227",
"161",
"119",
"97",
"71",
"90",
"115",
"149",
"186",
"177",
"173",
"94",
"69",
"54",
"48",
"26954",
"Channel_info_start",
"Channel : Mg",
"Points : 0",
"Range : 0.000000 - 0.000000",
"Step : 0.010000",
"Channel_info_end",
"Channel_info_start",
"Channel : Al",
"Points : 0",
"Range : 0.000000 - 0.000000",
"Step : 0.010000",
"Channel_info_end",
"Channel_info_start",
"Channel : Si",
"Points : 0",
"Range : 0.000000 - 0.000000",
"Step : 0.010000",
"Channel_info_end",
"Channel_info_start",
"Channel : P ",
"Points : 0",
"Range : 0.000000 - 0.000000",
"Step : 0.010000",
"Channel_info_end",
"Channel_info_start",
"Channel : S ",
"Points : 0",
"Range : 0.000000 - 0.000000",
"Step : 0.010000",
"Channel_info_end",
"Channel_info_start",
"Channel : Cl",
"Points : 0",
"Range : 0.000000 - 0.000000",
"Step : 0.010000",
"Channel_info_end",
"Channel_info_start",
"Channel : K ",
"Points : 0",
"Range : 0.000000 - 0.000000",
"Step : 0.010000",
"Channel_info_end",
"Channel_info_start",
"Channel : Ca",
"Points : 0",
"Range : 0.000000 - 0.000000",
"Step : 0.010000",
"Channel_info_end",
"Channel_info_start",
"Channel : Ti",
"Points : 0",
"Range : 0.000000 - 0.000000",
"Step : 0.010000",
"Channel_info_end",
"Channel_info_start",
"Channel : V ",
"Points : 0",
"Range : 0.000000 - 0.000000",
"Step : 0.010000",
"Channel_info_end",
"Channel_info_start",
"Channel : Cr",
"Points : 0",
"Range : 0.000000 - 0.000000",
"Step : 0.010000",
"Channel_info_end",
"Channel_info_start",
"Channel : Mn",
"Points : 0",
"Range : 0.000000 - 0.000000",
"Step : 0.010000",
"Channel_info_end",
"Channel_info_start",
"Channel : Fe",
"Points : 0",
"Range : 0.000000 - 0.000000",
"Step : 0.010000",
"Channel_info_end",
"Channel_info_start",
"Channel : Cu",
"Points : 0",
"Range : 0.000000 - 0.000000",
"Step : 0.010000",
"Channel_info_end",
"Channel_info_start",
"Channel : Zn",
"Points : 0",
"Range : 0.000000 - 0.000000",
"Step : 0.010000",
"Channel_info_end",
"Channel_info_start",
"Channel : Sr",
"Points : 0",
"Range : 0.000000 - 0.000000",
"Step : 0.010000",
"Channel_info_end",
"Channel_info_start",
"Channel : Pb",
"Points : 0",
"Range : 0.000000 - 0.000000",
"Step : 0.010000",
"Channel_info_end",
"",
"Qualitative Result",
"--------------------------------------------------------------------------------",
"Element :  P , Ti, Ru",
"",
"Peak List",
"--------------------------------------------------------------------------------",
"Channel               Line        keV     Net Int.(cps/uA)",
"--------------------------------------------------------------------------------",
"Na                    P Ka         1.98     0.013",
"                      TiKaESC      2.76     0.065",
"                      ----         3.69     0.178",
"                      TiKa         4.50     9.504",
"                      TiKb         4.93     1.218",
"                      RuKa        19.15     0.134",
"                      ----        19.44     0.074",
"                      ----        20.00     0.054",
"--------------------------------------------------------------------------------",
"",
"Quantitative Result",
"--------------------------------------------------------------------------------",
"Analyte               Result             Std.Dev. Proc.-Calc. Line Intensity(cps/uA)",
"--------------------------------------------------------------------------------",
"====[No. 1 Layer]====< Layer1               >===============================",
"Layer1                   0.000 ug/cm2    -------- Flux       -------- --------",