File: inputs/edxCalibration/edx_raw/2010-06/Ti 31498.20100610234406.csv
"Sample    : Ti 31498",
"Operator  : thiago",
"Comment  : cubatao-g-policarbonato",
"Group     : kerr2007ag180cal_lt",
"Date       : 2010-06-10 23:39:53",
"",
"Mesurement Condition",
"------------------------------------------------------------------------------------",
"Instrument : 700HS2   Atmosphere : Vac.   Collimator : 10(mm)   Spin : No",
"------------------------------------------------------------------------------------",
"Analyte               TG kV   uA      FI Acq.(keV)  Anal.(keV)  Time(sec)     DT(%)",
"------------------------------------------------------------------------------------",
"Na                    Rh 50  312-Auto Al  0 - 20    0.8 - 1.2   Live -  179   15",
"",
"<Profile>",
"Channel_info_start",
"Channel : Na",
"Points : 2048",
"Range : 0.000000 - 20.48",
"Step : 0.010000",
"Channel_info_end",
"0",
"0",
"0",
"0",
"0",
"19",
"20",
"22",
"23",
"20",
"15",
"23",
"18",
"19",
"13",
"25",
"27",
"24",
"14",
"26",
"21",
"33",
"16",
"30",
"26",
"32",
"30",
"46",
"98",
"107",
"29",
"22",
"26",
"21",
"24",
"24",
"23",
"42",
"81",
"282",
"249",
"84",
"33",
"41",
"41",
"57",
"70",
"58",
"38",
"50",
"57",
"184",
"899",
"1207",
"415",
"170",
"189",
"297",
"225",
"179",
"185",
"293",
"845",
"9724",
"34116",
"29074",
"5850",
"436",
"314",
"1462",
"4121",
"3774",
"982",
"111",
"47",
"45",
"59",
"69",
"55",
"54",
"47",
"49",
"69",
"73",
"79",
"87",
"103",
"109",
"99",
"111",
"124",
"130",
"151",
"132",
"103",
"101",
"101",
"111",
"105",
"89",
"106",
"106",
"86",
"94",
"81",
"86",
"87",
"79",
"81",
"117",
"96",
"100",
"88",
"128",
"150",
"128",
"129",
"111",
"115",
"114",
"101",
"123",
"139",
"174",
"146",
"137",
"107",
"116",
"146",
"172",
"145",
"118",
"121",
"107",
"113",
"126",
"110",
"101",
"104",
"89",
"96",
"96",
"83",
"99",
"103",
"109",
"93",
"110",
"105",
"95",
"112",
"98",
"98",
"117",
"107",
"100",
"78",
"94",
"100",
"99",
"86",
"123",
"100",
"103",
"94",
"109",
"102",
"95",
"78",
"90",
"88",
"101",
"91",
"104",
"106",
"113",
"106",
"89",
"77",
"103",
"81",
"95",
"71",
"84",
"94",
"101",
"78",
"102",
"90",
"89",
"75",
"94",
"93",
"83",
"66",
"105",
"88",
"90",
"86",
"106",
"82",
"79",
"82",
"78",
"69",
"76",
"70",
"88",
"81",
"71",
"73",
"84",
"80",
"80",
"78",
"80",
"73",
"103",
"73",
"67",
"81",
"80",
"70",
"77",
"81",
"77",
"68",
"76",
"95",
"59",
"69",
"93",
"72",
"67",
"67",
"71",
"67",
"56",
"77",
"69",
"59",
"59",
"61",
"52",
"48",
"60",
"70",
"56",
"73",
"65",
"60",
"62",
"54",
"59",
"67",
"67",
"60",
"81",
"55",
"69",
"80",
"75",
"73",
"67",
"113",
"104",
"110",
"133",
"146",
"180",
"265",
"316",
"419",
"444",
"464",
"441",
"402",
"357",
"238",
"195",
"145",
"137",
"100",
"99",
"132",
"159",
"180",
"201",
"205",
"107",
"76",
"52",
"54",
"30779",
"Channel_info_start",
"Channel : Mg",
"Points : 0",
"Range : 0.000000 - 0.000000",
"Step : 0.010000",
"Channel_info_end",
"Channel_info_start",
"Channel : Al",
"Points : 0",
"Range : 0.000000 - 0.000000",
"Step : 0.010000",
"Channel_info_end",
"Channel_info_start",
"Channel : Si",
"Points : 0",
"Range : 0.000000 - 0.000000",
"Step : 0.010000",
"Channel_info_end",
"Channel_info_start",
"Channel : P ",
"Points : 0",
"Range : 0.000000 - 0.000000",
"Step : 0.010000",
"Channel_info_end",
"Channel_info_start",
"Channel : S ",
"Points : 0",
"Range : 0.000000 - 0.000000",
"Step : 0.010000",
"Channel_info_end",
"Channel_info_start",
"Channel : Cl",
"Points : 0",
"Range : 0.000000 - 0.000000",
"Step : 0.010000",
"Channel_info_end",
"Channel_info_start",
"Channel : K ",
"Points : 0",
"Range : 0.000000 - 0.000000",
"Step : 0.010000",
"Channel_info_end",
"Channel_info_start",
"Channel : Ca",
"Points : 0",
"Range : 0.000000 - 0.000000",
"Step : 0.010000",
"Channel_info_end",
"Channel_info_start",
"Channel : Ti",
"Points : 0",
"Range : 0.000000 - 0.000000",
"Step : 0.010000",
"Channel_info_end",
"Channel_info_start",
"Channel : V ",
"Points : 0",
"Range : 0.000000 - 0.000000",
"Step : 0.010000",
"Channel_info_end",
"Channel_info_start",
"Channel : Cr",
"Points : 0",
"Range : 0.000000 - 0.000000",
"Step : 0.010000",
"Channel_info_end",
"Channel_info_start",
"Channel : Mn",
"Points : 0",
"Range : 0.000000 - 0.000000",
"Step : 0.010000",
"Channel_info_end",
"Channel_info_start",
"Channel : Fe",
"Points : 0",
"Range : 0.000000 - 0.000000",
"Step : 0.010000",
"Channel_info_end",
"Channel_info_start",
"Channel : Cu",
"Points : 0",
"Range : 0.000000 - 0.000000",
"Step : 0.010000",
"Channel_info_end",
"Channel_info_start",
"Channel : Zn",
"Points : 0",
"Range : 0.000000 - 0.000000",
"Step : 0.010000",
"Channel_info_end",
"Channel_info_start",
"Channel : Sr",
"Points : 0",
"Range : 0.000000 - 0.000000",
"Step : 0.010000",
"Channel_info_end",
"Channel_info_start",
"Channel : Pb",
"Points : 0",
"Range : 0.000000 - 0.000000",
"Step : 0.010000",
"Channel_info_end",
"",
"Qualitative Result",
"--------------------------------------------------------------------------------",
"Element :  P , Ti, Ca, Rh",
"",
"Peak List",
"--------------------------------------------------------------------------------",
"Channel               Line        keV     Net Int.(cps/uA)",
"--------------------------------------------------------------------------------",
"Na                    P Ka         2.00     0.019",
"                      TiKaESC      2.76     0.067",
"                      CaKa         3.68     0.299",
"                      CaKb         4.02     0.041",
"                      TiKa         4.50     9.661",
"                      TiKb         4.92     1.206",
"                      RhKaC       19.21     0.136",
"                      ----        19.52     0.036",
"                      RhKa        20.08     0.052",
"--------------------------------------------------------------------------------",
"",
"Quantitative Result",
"--------------------------------------------------------------------------------",
"Analyte               Result             Std.Dev. Proc.-Calc. Line Intensity(cps/uA)",
"--------------------------------------------------------------------------------",
"====[No. 1 Layer]====< Layer1               >===============================",
"Layer1                   0.000 ug/cm2    -------- Flux       -------- --------",