File: inputs/edxCalibration/edx_raw/2010-06/YbF3 31518.20100526005923.csv
"Sample    : YbF3 31518",
"Operator  : luisf",
"Comment  : cubatao-g-policarbonato",
"Group     : kerr2007ag180cal_lt",
"Date       : 2010-05-26 00:55:21",
"",
"Mesurement Condition",
"------------------------------------------------------------------------------------",
"Instrument : 700HS2   Atmosphere : Vac.   Collimator : 10(mm)   Spin : No",
"------------------------------------------------------------------------------------",
"Analyte               TG kV   uA      FI Acq.(keV)  Anal.(keV)  Time(sec)     DT(%)",
"------------------------------------------------------------------------------------",
"Na                    Rh 50  237-Auto Al  0 - 20    0.8 - 1.2   Live -  180   15",
"",
"<Profile>",
"Channel_info_start",
"Channel : Na",
"Points : 2048",
"Range : 0.000000 - 20.48",
"Step : 0.010000",
"Channel_info_end",
"0",
"0",
"0",
"0",
"0",
"24",
"24",
"25",
"16",
"21",
"22",
"15",
"17",
"16",
"11",
"26",
"65",
"160",
"79",
"42",
"80",
"781",
"2304",
"1454",
"262",
"265",
"151",
"67",
"102",
"137",
"49",
"26",
"21",
"21",
"27",
"17",
"20",
"18",
"30",
"25",
"25",
"23",
"15",
"20",
"12",
"16",
"20",
"21",
"14",
"14",
"36",
"112",
"648",
"858",
"262",
"48",
"71",
"150",
"105",
"33",
"39",
"39",
"41",
"43",
"56",
"61",
"68",
"61",
"66",
"60",
"51",
"68",
"60",
"56",
"54",
"56",
"61",
"68",
"58",
"83",
"78",
"109",
"85",
"97",
"67",
"86",
"67",
"98",
"116",
"111",
"125",
"149",
"373",
"676",
"593",
"357",
"156",
"160",
"133",
"146",
"164",
"185",
"237",
"585",
"3096",
"9760",
"12771",
"7332",
"1837",
"451",
"207",
"188",
"175",
"184",
"176",
"377",
"522",
"816",
"2130",
"5842",
"7541",
"5710",
"2535",
"1503",
"1727",
"2300",
"1586",
"688",
"262",
"179",
"133",
"137",
"214",
"277",
"287",
"231",
"210",
"322",
"602",
"1111",
"1216",
"698",
"337",
"401",
"510",
"513",
"323",
"192",
"127",
"161",
"129",
"140",
"97",
"108",
"103",
"129",
"134",
"112",
"112",
"118",
"121",
"114",
"102",
"104",
"109",
"115",
"98",
"88",
"98",
"94",
"89",
"110",
"81",
"97",
"100",
"91",
"91",
"90",
"88",
"70",
"90",
"94",
"81",
"103",
"86",
"86",
"71",
"79",
"75",
"96",
"88",
"85",
"89",
"73",
"85",
"68",
"63",
"89",
"92",
"87",
"72",
"80",
"76",
"68",
"97",
"74",
"73",
"66",
"72",
"77",
"75",
"75",
"77",
"81",
"84",
"63",
"79",
"93",
"72",
"53",
"64",
"53",
"74",
"60",
"64",
"79",
"66",
"77",
"76",
"67",
"73",
"52",
"66",
"74",
"78",
"54",
"61",
"65",
"58",
"65",
"62",
"64",
"59",
"59",
"53",
"54",
"62",
"61",
"47",
"67",
"56",
"53",
"50",
"52",
"54",
"62",
"62",
"72",
"58",
"70",
"53",
"58",
"71",
"63",
"70",
"90",
"80",
"112",
"135",
"181",
"223",
"255",
"274",
"374",
"344",
"377",
"349",
"263",
"190",
"165",
"125",
"117",
"93",
"84",
"135",
"178",
"253",
"281",
"228",
"133",
"108",
"64",
"49",
"26713",
"Channel_info_start",
"Channel : Mg",
"Points : 0",
"Range : 0.000000 - 0.000000",
"Step : 0.010000",
"Channel_info_end",
"Channel_info_start",
"Channel : Al",
"Points : 0",
"Range : 0.000000 - 0.000000",
"Step : 0.010000",
"Channel_info_end",
"Channel_info_start",
"Channel : Si",
"Points : 0",
"Range : 0.000000 - 0.000000",
"Step : 0.010000",
"Channel_info_end",
"Channel_info_start",
"Channel : P ",
"Points : 0",
"Range : 0.000000 - 0.000000",
"Step : 0.010000",
"Channel_info_end",
"Channel_info_start",
"Channel : S ",
"Points : 0",
"Range : 0.000000 - 0.000000",
"Step : 0.010000",
"Channel_info_end",
"Channel_info_start",
"Channel : Cl",
"Points : 0",
"Range : 0.000000 - 0.000000",
"Step : 0.010000",
"Channel_info_end",
"Channel_info_start",
"Channel : K ",
"Points : 0",
"Range : 0.000000 - 0.000000",
"Step : 0.010000",
"Channel_info_end",
"Channel_info_start",
"Channel : Ca",
"Points : 0",
"Range : 0.000000 - 0.000000",
"Step : 0.010000",
"Channel_info_end",
"Channel_info_start",
"Channel : Ti",
"Points : 0",
"Range : 0.000000 - 0.000000",
"Step : 0.010000",
"Channel_info_end",
"Channel_info_start",
"Channel : V ",
"Points : 0",
"Range : 0.000000 - 0.000000",
"Step : 0.010000",
"Channel_info_end",
"Channel_info_start",
"Channel : Cr",
"Points : 0",
"Range : 0.000000 - 0.000000",
"Step : 0.010000",
"Channel_info_end",
"Channel_info_start",
"Channel : Mn",
"Points : 0",
"Range : 0.000000 - 0.000000",
"Step : 0.010000",
"Channel_info_end",
"Channel_info_start",
"Channel : Fe",
"Points : 0",
"Range : 0.000000 - 0.000000",
"Step : 0.010000",
"Channel_info_end",
"Channel_info_start",
"Channel : Cu",
"Points : 0",
"Range : 0.000000 - 0.000000",
"Step : 0.010000",
"Channel_info_end",
"Channel_info_start",
"Channel : Zn",
"Points : 0",
"Range : 0.000000 - 0.000000",
"Step : 0.010000",
"Channel_info_end",
"Channel_info_start",
"Channel : Sr",
"Points : 0",
"Range : 0.000000 - 0.000000",
"Step : 0.010000",
"Channel_info_end",
"Channel_info_start",
"Channel : Pb",
"Points : 0",
"Range : 0.000000 - 0.000000",
"Step : 0.010000",
"Channel_info_end",
"",
"Qualitative Result",
"--------------------------------------------------------------------------------",
"Element :  Mg, Yb, Ta, P , Ca, Dy, Ni, Rh",
"",
"Peak List",
"--------------------------------------------------------------------------------",
"Channel               Line        keV     Net Int.(cps/uA)",
"--------------------------------------------------------------------------------",
"Na                    MgKa         1.20     0.037",
"                      YbMa         1.55     0.617",
"                      TaMa         1.76     0.059",
"                      P Ka         2.01     0.035",
"                      CaKa         3.69     0.286",
"                      CaKb         3.99     0.036",
"                      YbLL         6.54     0.154",
"                      DyLa         6.54     0.090",
"                      DyLb1        7.25     0.050",
"                      NiKa         7.40     5.143",
"                      YbLb4        8.27     0.720",
"                      YbLb1        8.40     2.987",
"                      YbLb2        8.76     0.810",
"                      TaLb1        9.34     0.059",
"                      YbLg1        9.77     0.472",
"                      YbLg2       10.11     0.153",
"                      RhKaC       19.23     0.127",
"                      RhKa        20.08     0.110",
"--------------------------------------------------------------------------------",
"",
"Quantitative Result",
"--------------------------------------------------------------------------------",
"Analyte               Result             Std.Dev. Proc.-Calc. Line Intensity(cps/uA)",
"--------------------------------------------------------------------------------",
"====[No. 1 Layer]====< Layer1               >===============================",
"Layer1                  12.101 ug/cm2    -------- Flux       -------- --------",
"Mg                      12.101 ug/cm2    -------- ********** -------- --------",