File: inputs/edxCalibration/edx_raw/2010-06/YbF9 31518.20100626153937.csv
"Sample    : YbF9 31518",
"Operator  : luis",
"Comment  : cubatao-g-policarbonato",
"Group     : kerr2007ag180cal_lt",
"Date       : 2010-06-26 15:35:34",
"",
"Mesurement Condition",
"------------------------------------------------------------------------------------",
"Instrument : 700HS2   Atmosphere : Vac.   Collimator : 10(mm)   Spin : No",
"------------------------------------------------------------------------------------",
"Analyte               TG kV   uA      FI Acq.(keV)  Anal.(keV)  Time(sec)     DT(%)",
"------------------------------------------------------------------------------------",
"Na                    Rh 50  237-Auto Al  0 - 20    0.8 - 1.2   Live -  180   14",
"",
"<Profile>",
"Channel_info_start",
"Channel : Na",
"Points : 2048",
"Range : 0.000000 - 20.48",
"Step : 0.010000",
"Channel_info_end",
"0",
"0",
"0",
"0",
"3",
"21",
"18",
"16",
"15",
"31",
"13",
"17",
"15",
"11",
"12",
"25",
"61",
"157",
"94",
"45",
"69",
"738",
"2322",
"1438",
"250",
"292",
"161",
"59",
"103",
"155",
"50",
"27",
"22",
"15",
"21",
"21",
"21",
"15",
"28",
"22",
"26",
"23",
"15",
"16",
"12",
"28",
"15",
"18",
"12",
"26",
"23",
"107",
"591",
"824",
"270",
"58",
"60",
"138",
"123",
"51",
"27",
"30",
"34",
"48",
"41",
"53",
"53",
"68",
"64",
"54",
"42",
"52",
"53",
"58",
"59",
"53",
"51",
"54",
"60",
"69",
"96",
"124",
"99",
"88",
"72",
"90",
"96",
"97",
"92",
"123",
"123",
"166",
"320",
"647",
"617",
"373",
"168",
"130",
"145",
"175",
"135",
"165",
"203",
"516",
"2649",
"9102",
"12902",
"7588",
"1982",
"470",
"212",
"154",
"129",
"156",
"193",
"352",
"547",
"781",
"2077",
"5499",
"7433",
"5689",
"2716",
"1481",
"1737",
"2299",
"1622",
"689",
"304",
"178",
"123",
"154",
"212",
"266",
"249",
"245",
"223",
"286",
"542",
"1055",
"1197",
"756",
"329",
"393",
"525",
"531",
"341",
"191",
"151",
"166",
"149",
"138",
"105",
"109",
"90",
"117",
"124",
"110",
"81",
"94",
"102",
"86",
"123",
"106",
"93",
"92",
"100",
"84",
"84",
"106",
"109",
"98",
"89",
"84",
"94",
"91",
"73",
"67",
"91",
"88",
"92",
"94",
"99",
"91",
"89",
"112",
"96",
"84",
"80",
"91",
"84",
"77",
"79",
"91",
"92",
"89",
"78",
"80",
"69",
"76",
"75",
"69",
"84",
"83",
"63",
"72",
"72",
"76",
"84",
"65",
"83",
"80",
"75",
"71",
"73",
"83",
"72",
"55",
"69",
"67",
"71",
"64",
"71",
"71",
"66",
"79",
"69",
"62",
"78",
"65",
"69",
"62",
"62",
"56",
"58",
"67",
"72",
"61",
"59",
"76",
"71",
"74",
"62",
"61",
"60",
"60",
"62",
"62",
"48",
"55",
"46",
"56",
"54",
"78",
"66",
"64",
"63",
"59",
"45",
"55",
"65",
"62",
"66",
"65",
"75",
"68",
"94",
"98",
"121",
"151",
"177",
"257",
"315",
"319",
"333",
"365",
"360",
"286",
"219",
"185",
"160",
"107",
"88",
"89",
"129",
"170",
"233",
"269",
"250",
"168",
"107",
"62",
"46",
"26836",
"Channel_info_start",
"Channel : Mg",
"Points : 0",
"Range : 0.000000 - 0.000000",
"Step : 0.010000",
"Channel_info_end",
"Channel_info_start",
"Channel : Al",
"Points : 0",
"Range : 0.000000 - 0.000000",
"Step : 0.010000",
"Channel_info_end",
"Channel_info_start",
"Channel : Si",
"Points : 0",
"Range : 0.000000 - 0.000000",
"Step : 0.010000",
"Channel_info_end",
"Channel_info_start",
"Channel : P ",
"Points : 0",
"Range : 0.000000 - 0.000000",
"Step : 0.010000",
"Channel_info_end",
"Channel_info_start",
"Channel : S ",
"Points : 0",
"Range : 0.000000 - 0.000000",
"Step : 0.010000",
"Channel_info_end",
"Channel_info_start",
"Channel : Cl",
"Points : 0",
"Range : 0.000000 - 0.000000",
"Step : 0.010000",
"Channel_info_end",
"Channel_info_start",
"Channel : K ",
"Points : 0",
"Range : 0.000000 - 0.000000",
"Step : 0.010000",
"Channel_info_end",
"Channel_info_start",
"Channel : Ca",
"Points : 0",
"Range : 0.000000 - 0.000000",
"Step : 0.010000",
"Channel_info_end",
"Channel_info_start",
"Channel : Ti",
"Points : 0",
"Range : 0.000000 - 0.000000",
"Step : 0.010000",
"Channel_info_end",
"Channel_info_start",
"Channel : V ",
"Points : 0",
"Range : 0.000000 - 0.000000",
"Step : 0.010000",
"Channel_info_end",
"Channel_info_start",
"Channel : Cr",
"Points : 0",
"Range : 0.000000 - 0.000000",
"Step : 0.010000",
"Channel_info_end",
"Channel_info_start",
"Channel : Mn",
"Points : 0",
"Range : 0.000000 - 0.000000",
"Step : 0.010000",
"Channel_info_end",
"Channel_info_start",
"Channel : Fe",
"Points : 0",
"Range : 0.000000 - 0.000000",
"Step : 0.010000",
"Channel_info_end",
"Channel_info_start",
"Channel : Cu",
"Points : 0",
"Range : 0.000000 - 0.000000",
"Step : 0.010000",
"Channel_info_end",
"Channel_info_start",
"Channel : Zn",
"Points : 0",
"Range : 0.000000 - 0.000000",
"Step : 0.010000",
"Channel_info_end",
"Channel_info_start",
"Channel : Sr",
"Points : 0",
"Range : 0.000000 - 0.000000",
"Step : 0.010000",
"Channel_info_end",
"Channel_info_start",
"Channel : Pb",
"Points : 0",
"Range : 0.000000 - 0.000000",
"Step : 0.010000",
"Channel_info_end",
"",
"Qualitative Result",
"--------------------------------------------------------------------------------",
"Element :  Mg, Yb, Ta, P , Ca, Dy, Ni, Cu, Ru",
"",
"Peak List",
"--------------------------------------------------------------------------------",
"Channel               Line        keV     Net Int.(cps/uA)",
"--------------------------------------------------------------------------------",
"Na                    MgKa         1.20     0.037",
"                      YbMa         1.56     0.636",
"                      TaMa         1.76     0.059",
"                      P Ka         2.00     0.037",
"                      CaKa         3.69     0.279",
"                      CaKb         4.03     0.033",
"                      YbLL         6.55     0.154",
"                      DyLa         6.55     0.064",
"                      NiKa         7.41     5.118",
"                      TaLa         8.10     0.071",
"                      YbLb4        8.27     0.716",
"                      YbLb1        8.40     2.916",
"                      YbLb2        8.76     0.829",
"                      CuKb         8.91     0.011",
"                      TaLb1        9.33     0.050",
"                      YbLg1        9.76     0.472",
"                      YbLg2       10.12     0.162",
"                      RuKa        19.20     0.141",
"                      ----        19.52     0.041",
"                      ----        19.97     0.074",
"--------------------------------------------------------------------------------",
"",
"Quantitative Result",
"--------------------------------------------------------------------------------",
"Analyte               Result             Std.Dev. Proc.-Calc. Line Intensity(cps/uA)",
"--------------------------------------------------------------------------------",
"====[No. 1 Layer]====< Layer1               >===============================",
"Layer1                  12.180 ug/cm2    -------- Flux       -------- --------",
"Mg                      12.180 ug/cm2    -------- ********** -------- --------",