File: inputs/edxCalibration/edx_raw/2010-06/YF3 15762.20100611021102.csv
"Sample    : YF3 15762",
"Operator  : Luís",
"Comment  : cubatao-g-policarbonato",
"Group     : kerr2007ag180cal_lt",
"Date       : 2010-06-11 02:07:00",
"",
"Mesurement Condition",
"------------------------------------------------------------------------------------",
"Instrument : 700HS2   Atmosphere : Vac.   Collimator : 10(mm)   Spin : No",
"------------------------------------------------------------------------------------",
"Analyte               TG kV   uA      FI Acq.(keV)  Anal.(keV)  Time(sec)     DT(%)",
"------------------------------------------------------------------------------------",
"Na                    Rh 50  237-Auto Al  0 - 20    0.8 - 1.2   Live -  179   14",
"",
"<Profile>",
"Channel_info_start",
"Channel : Na",
"Points : 2048",
"Range : 0.000000 - 20.48",
"Step : 0.010000",
"Channel_info_end",
"0",
"0",
"0",
"0",
"0",
"29",
"30",
"40",
"27",
"46",
"30",
"35",
"54",
"26",
"32",
"24",
"22",
"31",
"32",
"24",
"16",
"40",
"52",
"80",
"204",
"226",
"304",
"1460",
"1873",
"1059",
"303",
"89",
"37",
"35",
"19",
"20",
"19",
"13",
"14",
"25",
"23",
"16",
"16",
"16",
"10",
"11",
"17",
"12",
"11",
"16",
"24",
"92",
"399",
"514",
"150",
"58",
"46",
"80",
"58",
"39",
"29",
"33",
"39",
"44",
"45",
"56",
"60",
"37",
"46",
"40",
"45",
"37",
"54",
"53",
"39",
"43",
"46",
"45",
"53",
"65",
"38",
"41",
"53",
"56",
"71",
"54",
"69",
"87",
"77",
"73",
"95",
"94",
"82",
"79",
"86",
"74",
"96",
"87",
"92",
"118",
"72",
"87",
"109",
"92",
"79",
"97",
"86",
"100",
"79",
"75",
"83",
"89",
"113",
"100",
"133",
"128",
"133",
"108",
"87",
"97",
"97",
"94",
"109",
"146",
"130",
"106",
"79",
"105",
"107",
"100",
"102",
"102",
"105",
"116",
"104",
"88",
"75",
"106",
"101",
"84",
"72",
"94",
"74",
"93",
"67",
"75",
"77",
"84",
"97",
"87",
"94",
"85",
"87",
"92",
"88",
"84",
"84",
"96",
"79",
"96",
"82",
"91",
"92",
"72",
"80",
"91",
"81",
"92",
"79",
"72",
"65",
"82",
"89",
"86",
"70",
"81",
"73",
"88",
"71",
"79",
"78",
"94",
"70",
"81",
"74",
"99",
"81",
"91",
"71",
"83",
"70",
"81",
"64",
"73",
"80",
"73",
"70",
"85",
"72",
"79",
"82",
"93",
"78",
"98",
"77",
"107",
"107",
"110",
"197",
"665",
"2249",
"6483",
"11905",
"14619",
"11977",
"6808",
"2462",
"606",
"147",
"113",
"78",
"63",
"61",
"75",
"66",
"78",
"60",
"70",
"65",
"60",
"74",
"79",
"81",
"97",
"93",
"215",
"619",
"1365",
"2093",
"2462",
"1772",
"1075",
"689",
"424",
"316",
"179",
"92",
"70",
"61",
"50",
"54",
"49",
"58",
"37",
"36",
"54",
"61",
"42",
"46",
"56",
"60",
"47",
"60",
"73",
"67",
"74",
"83",
"81",
"130",
"142",
"215",
"247",
"350",
"334",
"312",
"354",
"293",
"230",
"197",
"177",
"106",
"78",
"73",
"60",
"96",
"137",
"156",
"160",
"144",
"93",
"47",
"45",
"43",
"25652",
"Channel_info_start",
"Channel : Mg",
"Points : 0",
"Range : 0.000000 - 0.000000",
"Step : 0.010000",
"Channel_info_end",
"Channel_info_start",
"Channel : Al",
"Points : 0",
"Range : 0.000000 - 0.000000",
"Step : 0.010000",
"Channel_info_end",
"Channel_info_start",
"Channel : Si",
"Points : 0",
"Range : 0.000000 - 0.000000",
"Step : 0.010000",
"Channel_info_end",
"Channel_info_start",
"Channel : P ",
"Points : 0",
"Range : 0.000000 - 0.000000",
"Step : 0.010000",
"Channel_info_end",
"Channel_info_start",
"Channel : S ",
"Points : 0",
"Range : 0.000000 - 0.000000",
"Step : 0.010000",
"Channel_info_end",
"Channel_info_start",
"Channel : Cl",
"Points : 0",
"Range : 0.000000 - 0.000000",
"Step : 0.010000",
"Channel_info_end",
"Channel_info_start",
"Channel : K ",
"Points : 0",
"Range : 0.000000 - 0.000000",
"Step : 0.010000",
"Channel_info_end",
"Channel_info_start",
"Channel : Ca",
"Points : 0",
"Range : 0.000000 - 0.000000",
"Step : 0.010000",
"Channel_info_end",
"Channel_info_start",
"Channel : Ti",
"Points : 0",
"Range : 0.000000 - 0.000000",
"Step : 0.010000",
"Channel_info_end",
"Channel_info_start",
"Channel : V ",
"Points : 0",
"Range : 0.000000 - 0.000000",
"Step : 0.010000",
"Channel_info_end",
"Channel_info_start",
"Channel : Cr",
"Points : 0",
"Range : 0.000000 - 0.000000",
"Step : 0.010000",
"Channel_info_end",
"Channel_info_start",
"Channel : Mn",
"Points : 0",
"Range : 0.000000 - 0.000000",
"Step : 0.010000",
"Channel_info_end",
"Channel_info_start",
"Channel : Fe",
"Points : 0",
"Range : 0.000000 - 0.000000",
"Step : 0.010000",
"Channel_info_end",
"Channel_info_start",
"Channel : Cu",
"Points : 0",
"Range : 0.000000 - 0.000000",
"Step : 0.010000",
"Channel_info_end",
"Channel_info_start",
"Channel : Zn",
"Points : 0",
"Range : 0.000000 - 0.000000",
"Step : 0.010000",
"Channel_info_end",
"Channel_info_start",
"Channel : Sr",
"Points : 0",
"Range : 0.000000 - 0.000000",
"Step : 0.010000",
"Channel_info_end",
"Channel_info_start",
"Channel : Pb",
"Points : 0",
"Range : 0.000000 - 0.000000",
"Step : 0.010000",
"Channel_info_end",
"",
"Qualitative Result",
"--------------------------------------------------------------------------------",
"Element :  Si, Y , Ca, Ru",
"",
"Peak List",
"--------------------------------------------------------------------------------",
"Channel               Line        keV     Net Int.(cps/uA)",
"--------------------------------------------------------------------------------",
"Na                    SiKa         1.69     0.046",
"                      Y La         1.94     0.566",
"                      CaKa         3.69     0.178",
"                      CaKb         4.01     0.024",
"                      Y Ka        14.90     7.003",
"                      Y Kb        16.71     1.124",
"                      ----        17.13     0.064",
"                      RuKa        19.16     0.146",
"                      ----        19.41     0.079",
"                      ----        19.98     0.043",
"--------------------------------------------------------------------------------",
"",
"Quantitative Result",
"--------------------------------------------------------------------------------",
"Analyte               Result             Std.Dev. Proc.-Calc. Line Intensity(cps/uA)",
"--------------------------------------------------------------------------------",
"====[No. 1 Layer]====< Layer1               >===============================",
"Layer1                   0.000 ug/cm2    -------- Flux       -------- --------",