File: inputs/edxCalibration/edx_raw/2010-06/YF3 15762.20100525231721.csv
"Sample    : YF3 15762",
"Operator  : luisf",
"Comment  : cubatao-g-policarbonato",
"Group     : kerr2007ag180cal_lt",
"Date       : 2010-05-25 23:13:20",
"",
"Mesurement Condition",
"------------------------------------------------------------------------------------",
"Instrument : 700HS2   Atmosphere : Vac.   Collimator : 10(mm)   Spin : No",
"------------------------------------------------------------------------------------",
"Analyte               TG kV   uA      FI Acq.(keV)  Anal.(keV)  Time(sec)     DT(%)",
"------------------------------------------------------------------------------------",
"Na                    Rh 50  237-Auto Al  0 - 20    0.8 - 1.2   Live -  179   14",
"",
"<Profile>",
"Channel_info_start",
"Channel : Na",
"Points : 2048",
"Range : 0.000000 - 20.48",
"Step : 0.010000",
"Channel_info_end",
"0",
"0",
"0",
"0",
"1",
"29",
"37",
"40",
"38",
"40",
"36",
"52",
"39",
"36",
"27",
"33",
"25",
"27",
"24",
"26",
"24",
"28",
"36",
"81",
"169",
"242",
"327",
"1476",
"1903",
"1076",
"281",
"84",
"30",
"32",
"32",
"16",
"15",
"16",
"14",
"22",
"18",
"20",
"16",
"22",
"16",
"17",
"14",
"13",
"12",
"9",
"26",
"88",
"378",
"513",
"165",
"65",
"50",
"107",
"77",
"43",
"35",
"29",
"28",
"46",
"54",
"55",
"58",
"49",
"30",
"47",
"45",
"36",
"37",
"44",
"25",
"46",
"63",
"54",
"41",
"59",
"36",
"49",
"47",
"63",
"65",
"71",
"63",
"90",
"74",
"79",
"84",
"90",
"90",
"73",
"87",
"108",
"99",
"92",
"99",
"100",
"101",
"102",
"83",
"91",
"93",
"91",
"91",
"106",
"92",
"109",
"80",
"123",
"99",
"112",
"129",
"133",
"132",
"110",
"104",
"90",
"108",
"99",
"141",
"150",
"107",
"102",
"95",
"88",
"107",
"110",
"100",
"109",
"95",
"95",
"91",
"93",
"93",
"96",
"87",
"120",
"80",
"111",
"69",
"75",
"96",
"86",
"87",
"83",
"83",
"78",
"90",
"82",
"73",
"90",
"96",
"92",
"82",
"70",
"82",
"97",
"111",
"88",
"60",
"88",
"63",
"98",
"65",
"84",
"90",
"79",
"71",
"99",
"73",
"94",
"84",
"78",
"68",
"75",
"73",
"75",
"88",
"75",
"80",
"67",
"78",
"70",
"95",
"86",
"75",
"69",
"72",
"77",
"80",
"82",
"56",
"60",
"77",
"79",
"77",
"82",
"77",
"80",
"97",
"90",
"84",
"84",
"109",
"122",
"181",
"503",
"1935",
"6304",
"11467",
"14453",
"12001",
"7306",
"2885",
"670",
"157",
"97",
"73",
"80",
"72",
"83",
"59",
"70",
"83",
"87",
"63",
"93",
"73",
"79",
"77",
"97",
"125",
"233",
"600",
"1324",
"1976",
"2475",
"1862",
"1075",
"659",
"473",
"326",
"190",
"79",
"68",
"59",
"54",
"60",
"42",
"55",
"46",
"39",
"52",
"56",
"54",
"49",
"51",
"52",
"60",
"58",
"63",
"74",
"74",
"86",
"95",
"112",
"161",
"192",
"233",
"333",
"354",
"332",
"342",
"287",
"252",
"188",
"163",
"107",
"102",
"79",
"82",
"111",
"119",
"139",
"167",
"141",
"110",
"69",
"50",
"43",
"25631",
"Channel_info_start",
"Channel : Mg",
"Points : 0",
"Range : 0.000000 - 0.000000",
"Step : 0.010000",
"Channel_info_end",
"Channel_info_start",
"Channel : Al",
"Points : 0",
"Range : 0.000000 - 0.000000",
"Step : 0.010000",
"Channel_info_end",
"Channel_info_start",
"Channel : Si",
"Points : 0",
"Range : 0.000000 - 0.000000",
"Step : 0.010000",
"Channel_info_end",
"Channel_info_start",
"Channel : P ",
"Points : 0",
"Range : 0.000000 - 0.000000",
"Step : 0.010000",
"Channel_info_end",
"Channel_info_start",
"Channel : S ",
"Points : 0",
"Range : 0.000000 - 0.000000",
"Step : 0.010000",
"Channel_info_end",
"Channel_info_start",
"Channel : Cl",
"Points : 0",
"Range : 0.000000 - 0.000000",
"Step : 0.010000",
"Channel_info_end",
"Channel_info_start",
"Channel : K ",
"Points : 0",
"Range : 0.000000 - 0.000000",
"Step : 0.010000",
"Channel_info_end",
"Channel_info_start",
"Channel : Ca",
"Points : 0",
"Range : 0.000000 - 0.000000",
"Step : 0.010000",
"Channel_info_end",
"Channel_info_start",
"Channel : Ti",
"Points : 0",
"Range : 0.000000 - 0.000000",
"Step : 0.010000",
"Channel_info_end",
"Channel_info_start",
"Channel : V ",
"Points : 0",
"Range : 0.000000 - 0.000000",
"Step : 0.010000",
"Channel_info_end",
"Channel_info_start",
"Channel : Cr",
"Points : 0",
"Range : 0.000000 - 0.000000",
"Step : 0.010000",
"Channel_info_end",
"Channel_info_start",
"Channel : Mn",
"Points : 0",
"Range : 0.000000 - 0.000000",
"Step : 0.010000",
"Channel_info_end",
"Channel_info_start",
"Channel : Fe",
"Points : 0",
"Range : 0.000000 - 0.000000",
"Step : 0.010000",
"Channel_info_end",
"Channel_info_start",
"Channel : Cu",
"Points : 0",
"Range : 0.000000 - 0.000000",
"Step : 0.010000",
"Channel_info_end",
"Channel_info_start",
"Channel : Zn",
"Points : 0",
"Range : 0.000000 - 0.000000",
"Step : 0.010000",
"Channel_info_end",
"Channel_info_start",
"Channel : Sr",
"Points : 0",
"Range : 0.000000 - 0.000000",
"Step : 0.010000",
"Channel_info_end",
"Channel_info_start",
"Channel : Pb",
"Points : 0",
"Range : 0.000000 - 0.000000",
"Step : 0.010000",
"Channel_info_end",
"",
"Qualitative Result",
"--------------------------------------------------------------------------------",
"Element :  Si, Y , Ca, Rh",
"",
"Peak List",
"--------------------------------------------------------------------------------",
"Channel               Line        keV     Net Int.(cps/uA)",
"--------------------------------------------------------------------------------",
"Na                    SiKa         1.71     0.047",
"                      Y La         1.94     0.542",
"                      CaKa         3.69     0.166",
"                      CaKb         4.00     0.024",
"                      Y Ka        14.92     7.140",
"                      Y Kb        16.70     1.152",
"                      ----        17.09     0.102",
"                      RhKaC       19.19     0.127",
"                      ----        19.42     0.066",
"                      RhKa        20.05     0.062",
"--------------------------------------------------------------------------------",
"",
"Quantitative Result",
"--------------------------------------------------------------------------------",
"Analyte               Result             Std.Dev. Proc.-Calc. Line Intensity(cps/uA)",
"--------------------------------------------------------------------------------",
"====[No. 1 Layer]====< Layer1               >===============================",
"Layer1                   0.000 ug/cm2    -------- Flux       -------- --------",