File: inputs/edxCalibration/edx_raw/2010-06/YF5 31506.20100611021501.csv
"Sample    : YF5 31506",
"Operator  : Luís",
"Comment  : cubatao-g-policarbonato",
"Group     : kerr2007ag180cal_lt",
"Date       : 2010-06-11 02:11:00",
"",
"Mesurement Condition",
"------------------------------------------------------------------------------------",
"Instrument : 700HS2   Atmosphere : Vac.   Collimator : 10(mm)   Spin : No",
"------------------------------------------------------------------------------------",
"Analyte               TG kV   uA      FI Acq.(keV)  Anal.(keV)  Time(sec)     DT(%)",
"------------------------------------------------------------------------------------",
"Na                    Rh 50  237-Auto Al  0 - 20    0.8 - 1.2   Live -  178   14",
"",
"<Profile>",
"Channel_info_start",
"Channel : Na",
"Points : 2048",
"Range : 0.000000 - 20.48",
"Step : 0.010000",
"Channel_info_end",
"0",
"0",
"0",
"0",
"0",
"37",
"29",
"39",
"28",
"45",
"45",
"43",
"41",
"38",
"25",
"25",
"24",
"29",
"27",
"23",
"28",
"38",
"48",
"84",
"178",
"238",
"288",
"1414",
"1778",
"1029",
"327",
"73",
"31",
"45",
"34",
"24",
"10",
"17",
"24",
"26",
"25",
"12",
"10",
"13",
"16",
"18",
"17",
"18",
"25",
"25",
"25",
"115",
"590",
"835",
"247",
"70",
"67",
"143",
"100",
"37",
"28",
"28",
"41",
"45",
"47",
"58",
"51",
"45",
"33",
"53",
"52",
"48",
"41",
"48",
"32",
"40",
"43",
"53",
"54",
"34",
"54",
"52",
"34",
"51",
"70",
"67",
"64",
"72",
"71",
"72",
"66",
"84",
"94",
"111",
"82",
"82",
"100",
"99",
"85",
"90",
"75",
"88",
"94",
"89",
"86",
"88",
"82",
"85",
"83",
"87",
"98",
"109",
"113",
"116",
"120",
"131",
"124",
"88",
"85",
"107",
"98",
"120",
"120",
"144",
"135",
"119",
"90",
"105",
"104",
"84",
"86",
"96",
"95",
"90",
"104",
"94",
"94",
"97",
"77",
"106",
"82",
"103",
"83",
"91",
"78",
"90",
"90",
"97",
"94",
"91",
"83",
"86",
"88",
"83",
"81",
"95",
"78",
"88",
"77",
"107",
"86",
"89",
"83",
"75",
"75",
"77",
"92",
"81",
"78",
"91",
"82",
"57",
"75",
"91",
"81",
"66",
"74",
"68",
"72",
"92",
"84",
"92",
"81",
"76",
"81",
"78",
"81",
"98",
"74",
"92",
"95",
"72",
"59",
"60",
"60",
"71",
"64",
"69",
"60",
"82",
"74",
"70",
"83",
"83",
"85",
"74",
"89",
"110",
"186",
"550",
"2155",
"6191",
"10776",
"14068",
"10941",
"6386",
"2380",
"612",
"157",
"86",
"66",
"66",
"80",
"73",
"74",
"66",
"59",
"76",
"61",
"83",
"67",
"91",
"110",
"68",
"100",
"226",
"545",
"1285",
"1859",
"2227",
"1734",
"986",
"588",
"432",
"306",
"162",
"96",
"60",
"41",
"52",
"45",
"51",
"53",
"37",
"43",
"59",
"47",
"49",
"51",
"58",
"61",
"63",
"53",
"62",
"60",
"89",
"71",
"115",
"110",
"143",
"197",
"246",
"284",
"331",
"371",
"306",
"273",
"219",
"181",
"163",
"94",
"87",
"77",
"62",
"86",
"119",
"147",
"175",
"134",
"100",
"72",
"57",
"40",
"24655",
"Channel_info_start",
"Channel : Mg",
"Points : 0",
"Range : 0.000000 - 0.000000",
"Step : 0.010000",
"Channel_info_end",
"Channel_info_start",
"Channel : Al",
"Points : 0",
"Range : 0.000000 - 0.000000",
"Step : 0.010000",
"Channel_info_end",
"Channel_info_start",
"Channel : Si",
"Points : 0",
"Range : 0.000000 - 0.000000",
"Step : 0.010000",
"Channel_info_end",
"Channel_info_start",
"Channel : P ",
"Points : 0",
"Range : 0.000000 - 0.000000",
"Step : 0.010000",
"Channel_info_end",
"Channel_info_start",
"Channel : S ",
"Points : 0",
"Range : 0.000000 - 0.000000",
"Step : 0.010000",
"Channel_info_end",
"Channel_info_start",
"Channel : Cl",
"Points : 0",
"Range : 0.000000 - 0.000000",
"Step : 0.010000",
"Channel_info_end",
"Channel_info_start",
"Channel : K ",
"Points : 0",
"Range : 0.000000 - 0.000000",
"Step : 0.010000",
"Channel_info_end",
"Channel_info_start",
"Channel : Ca",
"Points : 0",
"Range : 0.000000 - 0.000000",
"Step : 0.010000",
"Channel_info_end",
"Channel_info_start",
"Channel : Ti",
"Points : 0",
"Range : 0.000000 - 0.000000",
"Step : 0.010000",
"Channel_info_end",
"Channel_info_start",
"Channel : V ",
"Points : 0",
"Range : 0.000000 - 0.000000",
"Step : 0.010000",
"Channel_info_end",
"Channel_info_start",
"Channel : Cr",
"Points : 0",
"Range : 0.000000 - 0.000000",
"Step : 0.010000",
"Channel_info_end",
"Channel_info_start",
"Channel : Mn",
"Points : 0",
"Range : 0.000000 - 0.000000",
"Step : 0.010000",
"Channel_info_end",
"Channel_info_start",
"Channel : Fe",
"Points : 0",
"Range : 0.000000 - 0.000000",
"Step : 0.010000",
"Channel_info_end",
"Channel_info_start",
"Channel : Cu",
"Points : 0",
"Range : 0.000000 - 0.000000",
"Step : 0.010000",
"Channel_info_end",
"Channel_info_start",
"Channel : Zn",
"Points : 0",
"Range : 0.000000 - 0.000000",
"Step : 0.010000",
"Channel_info_end",
"Channel_info_start",
"Channel : Sr",
"Points : 0",
"Range : 0.000000 - 0.000000",
"Step : 0.010000",
"Channel_info_end",
"Channel_info_start",
"Channel : Pb",
"Points : 0",
"Range : 0.000000 - 0.000000",
"Step : 0.010000",
"Channel_info_end",
"",
"Qualitative Result",
"--------------------------------------------------------------------------------",
"Element :  Si, Y , Ca, Ru",
"",
"Peak List",
"--------------------------------------------------------------------------------",
"Channel               Line        keV     Net Int.(cps/uA)",
"--------------------------------------------------------------------------------",
"Na                    SiKa         1.72     0.050",
"                      Y La         1.94     0.519",
"                      CaKa         3.68     0.295",
"                      CaKb         4.02     0.036",
"                      Y Ka        14.91     6.736",
"                      Y Kb        16.72     1.092",
"                      RuKa        19.17     0.139",
"                      ----        20.00     0.047",
"--------------------------------------------------------------------------------",
"",
"Quantitative Result",
"--------------------------------------------------------------------------------",
"Analyte               Result             Std.Dev. Proc.-Calc. Line Intensity(cps/uA)",
"--------------------------------------------------------------------------------",
"====[No. 1 Layer]====< Layer1               >===============================",
"Layer1                   0.000 ug/cm2    -------- Flux       -------- --------",